PDS_VERSION_ID         = PDS3
RECORD_TYPE            = STREAM
OBJECT                 = TEXT
  PUBLICATION_DATE     = 2004-12-07
  INTERCHANGE_FORMAT   = ASCII
  NOTE                 = "CCD quantum efficiencies for NAC and WAC."
END_OBJECT             = TEXT
END
   
Cassini ISS CCD spectral sensitivity (e-/photon)
  Column 1 = Wavelength (nm)
  Column 2 = CCD 220 (NAC) 
  Column 3 = CCD 361 (WAC)
Sources:
  1) Deep UV data from G. James (IOM 323-GJ96-617, Sep 5, 1996)
  2) UV/VIS/NIR data from J. Janesick
Columns 2 and 3 are from data set #5 provided by Liz Romo and represent
weighted averages of sources 1 and 2.  The weighting is from Bob West.
\begindata
      200.000     0.119980     0.116810
      201.000     0.119640     0.116520
      202.000     0.119300     0.116230
      203.000     0.118950     0.115940
      204.000     0.118610     0.115650
      205.000     0.118500     0.115660
      206.000     0.118390     0.115670
      207.000     0.118280     0.115690
      208.000     0.118170     0.115700
      209.000     0.118070     0.115720
      210.000     0.118110     0.115810
      211.000     0.118150     0.115910
      212.000     0.118180     0.116000
      213.000     0.118220     0.116090
      214.000     0.118300     0.116210
      215.000     0.118550     0.116400
      216.000     0.118790     0.116590
      217.000     0.119040     0.116780
      218.000     0.119290     0.116970
      219.000     0.119570     0.117190
      220.000     0.119920     0.117480
      221.000     0.120280     0.117770
      222.000     0.120630     0.118050
      223.000     0.120990     0.118340
      224.000     0.121350     0.118650
      225.000     0.121730     0.118990
      226.000     0.122120     0.119320
      227.000     0.122500     0.119660
      228.000     0.122880     0.120000
      229.000     0.123280     0.120360
      230.000     0.123690     0.120760
      231.000     0.124110     0.121150
      232.000     0.124520     0.121550
      233.000     0.124940     0.121940
      234.000     0.125390     0.122400
      235.000     0.125880     0.122890
      236.000     0.126370     0.123390
      237.000     0.126850     0.123890
      238.000     0.127340     0.124380
      239.000     0.127870     0.124940
      240.000     0.128410     0.125510
      241.000     0.128960     0.126080
      242.000     0.129500     0.126660
      243.000     0.130050     0.127230
      244.000     0.130610     0.127820
      245.000     0.131170     0.128410
      246.000     0.131740     0.128990
      247.000     0.132300     0.129580
      248.000     0.132860     0.130170
      249.000     0.133300     0.130600
      250.000     0.133720     0.131000
      251.000     0.134150     0.131410
      252.000     0.134570     0.131820
      253.000     0.134990     0.132230
      254.000     0.134880     0.132070
      255.000     0.134750     0.131910
      256.000     0.134630     0.131750
      257.000     0.134500     0.131580
      258.000     0.134360     0.131400
      259.000     0.134000     0.131040
      260.000     0.133630     0.130670
      261.000     0.133270     0.130310
      262.000     0.132900     0.129940
      263.000     0.132550     0.129590
      264.000     0.132250     0.129290
      265.000     0.131960     0.128980
      266.000     0.131660     0.128680
      267.000     0.131360     0.128370
      268.000     0.131140     0.128100
      269.000     0.131100     0.127930
      270.000     0.131060     0.127750
      271.000     0.131020     0.127570
      272.000     0.130980     0.127390
      273.000     0.131020     0.127240
      274.000     0.131180     0.127120
      275.000     0.131350     0.127000
      276.000     0.131510     0.126880
      277.000     0.131680     0.126760
      278.000     0.131870     0.126670
      279.000     0.132100     0.126620
      280.000     0.132330     0.126570
      281.000     0.132550     0.126510
      282.000     0.132780     0.126460
      283.000     0.133020     0.126470
      284.000     0.133280     0.126530
      285.000     0.133530     0.126590
      286.000     0.133780     0.126640
      287.000     0.134030     0.126700
      288.000     0.134300     0.126900
      289.000     0.134570     0.127170
      290.000     0.134850     0.127430
      291.000     0.135120     0.127700
      292.000     0.135400     0.127970
      293.000     0.135720     0.128460
      294.000     0.136060     0.129010
      295.000     0.136390     0.129570
      296.000     0.136730     0.130130
      297.000     0.137070     0.130680
      298.000     0.137430     0.131300
      299.000     0.137800     0.131930
      300.000     0.138160     0.132550
      301.000     0.138530     0.133180
      302.000     0.138900     0.133810
      303.000     0.139240     0.134360
      304.000     0.139590     0.134920
      305.000     0.139940     0.135480
      306.000     0.140280     0.136030
      307.000     0.140620     0.136580
      308.000     0.140900     0.136990
      309.000     0.141180     0.137400
      310.000     0.141460     0.137820
      311.000     0.141740     0.138230
      312.000     0.142010     0.138620
      313.000     0.142250     0.138930
      314.000     0.142490     0.139230
      315.000     0.142730     0.139540
      316.000     0.142970     0.139840
      317.000     0.143200     0.140120
      318.000     0.143410     0.140350
      319.000     0.143620     0.140570
      320.000     0.143830     0.140800
      321.000     0.144040     0.141020
      322.000     0.144240     0.141230
      323.000     0.144420     0.141380
      324.000     0.144590     0.141540
      325.000     0.144770     0.141700
      326.000     0.144940     0.141860
      327.000     0.145100     0.142000
      328.000     0.145220     0.142100
      329.000     0.145350     0.142200
      330.000     0.145480     0.142310
      331.000     0.145610     0.142410
      332.000     0.145710     0.142490
      333.000     0.145770     0.142540
      334.000     0.145840     0.142600
      335.000     0.145910     0.142650
      336.000     0.145980     0.142710
      337.000     0.146000     0.142740
      338.000     0.145980     0.142750
      339.000     0.145970     0.142770
      340.000     0.145960     0.142780
      341.000     0.145950     0.142790
      342.000     0.145900     0.142760
      343.000     0.145840     0.142720
      344.000     0.145780     0.142680
      345.000     0.145720     0.142640
      346.000     0.145660     0.142600
      347.000     0.145550     0.142510
      348.000     0.145440     0.142420
      349.000     0.145330     0.142330
      350.000     0.145220     0.142240
      351.000     0.145110     0.142140
      352.000     0.144910     0.142010
      353.000     0.144720     0.141870
      354.000     0.144520     0.141740
      355.000     0.144330     0.141610
      356.000     0.144130     0.141470
      357.000     0.143770     0.141300
      358.000     0.143420     0.141120
      359.000     0.143070     0.140950
      360.000     0.142720     0.140780
      361.000     0.142320     0.140590
      362.000     0.141700     0.140340
      363.000     0.141080     0.140090
      364.000     0.140460     0.139830
      365.000     0.139830     0.139580
      366.000     0.139160     0.139320
      367.000     0.138340     0.139040
      368.000     0.137520     0.138760
      369.000     0.136690     0.138480
      370.000     0.135870     0.138200
      371.000     0.135050     0.137930
      372.000     0.134210     0.137660
      373.000     0.133380     0.137390
      374.000     0.132550     0.137120
      375.000     0.131720     0.136850
      376.000     0.131050     0.136590
      377.000     0.130570     0.136350
      378.000     0.130100     0.136100
      379.000     0.129630     0.135850
      380.000     0.129160     0.135600
      381.000     0.129090     0.135360
      382.000     0.129340     0.135130
      383.000     0.129590     0.134890
      384.000     0.129840     0.134650
      385.000     0.130100     0.134420
      386.000     0.130480     0.134180
      387.000     0.130930     0.133950
      388.000     0.131390     0.133720
      389.000     0.131840     0.133480
      390.000     0.132300     0.133250
      391.000     0.132710     0.133030
      392.000     0.133110     0.132800
      393.000     0.133500     0.132580
      394.000     0.133900     0.132360
      395.000     0.134300     0.132130
      396.000     0.134570     0.131960
      397.000     0.134830     0.131800
      398.000     0.135090     0.131630
      399.000     0.135340     0.131470
      400.000     0.135600     0.131310
      401.000     0.135650     0.131410
      402.000     0.135700     0.131540
      403.000     0.135750     0.131660
      404.000     0.135800     0.131780
      405.000     0.135840     0.131900
      406.000     0.135820     0.132030
      407.000     0.135810     0.132160
      408.000     0.135790     0.132290
      409.000     0.135770     0.132420
      410.000     0.135750     0.132550
      411.000     0.135750     0.132680
      412.000     0.135740     0.132800
      413.000     0.135740     0.132930
      414.000     0.135730     0.133060
      415.000     0.135740     0.133180
      416.000     0.135770     0.133310
      417.000     0.135800     0.133430
      418.000     0.135830     0.133550
      419.000     0.135860     0.133680
      420.000     0.135910     0.133800
      421.000     0.135980     0.133920
      422.000     0.136050     0.134040
      423.000     0.136120     0.134160
      424.000     0.136200     0.134290
      425.000     0.136290     0.134410
      426.000     0.136400     0.134530
      427.000     0.136510     0.134650
      428.000     0.136620     0.134770
      429.000     0.136730     0.134890
      430.000     0.136860     0.135020
      431.000     0.137010     0.135140
      432.000     0.137150     0.135260
      433.000     0.137300     0.135380
      434.000     0.137450     0.135500
      435.000     0.137600     0.135620
      436.000     0.137770     0.135750
      437.000     0.137940     0.135870
      438.000     0.138100     0.135990
      439.000     0.138270     0.136110
      440.000     0.138430     0.136230
      441.000     0.138590     0.136350
      442.000     0.138750     0.136470
      443.000     0.138910     0.136590
      444.000     0.139070     0.136710
      445.000     0.139140     0.136830
      446.000     0.139210     0.136940
      447.000     0.139270     0.137060
      448.000     0.139330     0.137170
      449.000     0.139390     0.137280
      450.000     0.139210     0.137040
      451.000     0.139000     0.136770
      452.000     0.138800     0.136510
      453.000     0.138600     0.136240
      454.000     0.138390     0.135970
      455.000     0.138120     0.135570
      456.000     0.137840     0.135170
      457.000     0.137570     0.134770
      458.000     0.137300     0.134370
      459.000     0.137050     0.134010
      460.000     0.136960     0.133930
      461.000     0.136880     0.133840
      462.000     0.136790     0.133750
      463.000     0.136700     0.133670
      464.000     0.136650     0.133650
      465.000     0.136690     0.133830
      466.000     0.136740     0.134000
      467.000     0.136790     0.134180
      468.000     0.136830     0.134360
      469.000     0.137270     0.134910
      470.000     0.138450     0.136150
      471.000     0.139640     0.137400
      472.000     0.140830     0.138650
      473.000     0.142020     0.139900
      474.000     0.143600     0.141400
      475.000     0.145700     0.143220
      476.000     0.147810     0.145030
      477.000     0.149910     0.146850
      478.000     0.147760     0.148660
      479.000     0.149425     0.150590
      480.000     0.151260     0.152600
      481.000     0.153090     0.154620
      482.000     0.155540     0.156630
      483.000     0.157995     0.158640
      484.000     0.160760     0.160870
      485.000     0.163710     0.163230
      486.000     0.166655     0.165580
      487.000     0.169605     0.167940
      488.000     0.172555     0.170290
      489.000     0.175565     0.172700
      490.000     0.178595     0.175130
      491.000     0.181630     0.177550
      492.000     0.184660     0.179980
      493.000     0.187695     0.182400
      494.000     0.190550     0.184700
      495.000     0.193365     0.186970
      496.000     0.196190     0.189230
      497.000     0.199010     0.191500
      498.000     0.201830     0.193770
      499.000     0.204205     0.195740
      500.000     0.206550     0.197690
      501.000     0.208895     0.199630
      502.000     0.211235     0.201580
      503.000     0.213570     0.203520
      504.000     0.215625     0.205160
      505.000     0.217675     0.206810
      506.000     0.219730     0.208460
      507.000     0.221775     0.210110
      508.000     0.223825     0.211740
      509.000     0.225890     0.213260
      510.000     0.227945     0.214790
      511.000     0.230000     0.216310
      512.000     0.232060     0.217830
      513.000     0.234125     0.219380
      514.000     0.236230     0.221040
      515.000     0.238325     0.222690
      516.000     0.240420     0.224340
      517.000     0.242520     0.226000
      518.000     0.244635     0.227810
      519.000     0.246785     0.229960
      520.000     0.248925     0.232120
      521.000     0.251070     0.234270
      522.000     0.253220     0.236420
      523.000     0.255385     0.238770
      524.000     0.257580     0.241400
      525.000     0.259780     0.244030
      526.000     0.261970     0.246660
      527.000     0.264170     0.249290
      528.000     0.266375     0.251970
      529.000     0.268110     0.254700
      530.000     0.269840     0.257430
      531.000     0.271575     0.260160
      532.000     0.273305     0.262890
      533.000     0.275025     0.265530
      534.000     0.276740     0.268130
      535.000     0.278455     0.270730
      536.000     0.280175     0.273340
      537.000     0.281885     0.275940
      538.000     0.283545     0.278360
      539.000     0.285175     0.280720
      540.000     0.286810     0.283080
      541.000     0.288440     0.285440
      542.000     0.290080     0.287790
      543.000     0.291675     0.290060
      544.000     0.293255     0.287505
      545.000     0.294845     0.290055
      546.000     0.296535     0.292045
      547.000     0.298320     0.293480
      548.000     0.300070     0.294855
      549.000     0.301815     0.296225
      550.000     0.303565     0.297595
      551.000     0.305310     0.298970
      552.000     0.307055     0.300340
      553.000     0.308740     0.301620
      554.000     0.310430     0.302890
      555.000     0.312120     0.304170
      556.000     0.313805     0.305450
      557.000     0.315490     0.306710
      558.000     0.317100     0.307840
      559.000     0.318710     0.308965
      560.000     0.320320     0.310090
      561.000     0.321930     0.311215
      562.000     0.323530     0.312320
      563.000     0.325095     0.313330
      564.000     0.326665     0.314345
      565.000     0.328230     0.315355
      566.000     0.329800     0.316365
      567.000     0.331350     0.317340
      568.000     0.332875     0.318240
      569.000     0.334395     0.319135
      570.000     0.335910     0.320030
      571.000     0.337430     0.320925
      572.000     0.338905     0.321755
      573.000     0.340315     0.322495
      574.000     0.341730     0.323235
      575.000     0.343140     0.323970
      576.000     0.344555     0.324705
      577.000     0.345800     0.325320
      578.000     0.346885     0.325815
      579.000     0.347980     0.326310
      580.000     0.349065     0.326805
      581.000     0.350155     0.327300
      582.000     0.350910     0.327535
      583.000     0.351450     0.327610
      584.000     0.351995     0.327690
      585.000     0.352540     0.327765
      586.000     0.353080     0.327845
      587.000     0.353585     0.327850
      588.000     0.354065     0.327840
      589.000     0.354550     0.327830
      590.000     0.355040     0.327815
      591.000     0.355525     0.327805
      592.000     0.356050     0.327840
      593.000     0.356590     0.327885
      594.000     0.357125     0.327935
      595.000     0.357665     0.327980
      596.000     0.358200     0.328030
      597.000     0.358810     0.328175
      598.000     0.359425     0.328325
      599.000     0.360040     0.328485
      600.000     0.360655     0.328640
      601.000     0.361020     0.328670
      602.000     0.361185     0.328660
      603.000     0.361350     0.328645
      604.000     0.361515     0.328630
      605.000     0.361680     0.328620
      606.000     0.361850     0.328615
      607.000     0.362055     0.328655
      608.000     0.362260     0.328700
      609.000     0.362465     0.328745
      610.000     0.362670     0.328785
      611.000     0.362880     0.328840
      612.000     0.363125     0.328940
      613.000     0.363370     0.329035
      614.000     0.363615     0.329135
      615.000     0.363860     0.329235
      616.000     0.364120     0.329350
      617.000     0.364405     0.329505
      618.000     0.364690     0.329665
      619.000     0.364975     0.329815
      620.000     0.365260     0.329970
      621.000     0.365560     0.330145
      622.000     0.365880     0.330360
      623.000     0.366205     0.330570
      624.000     0.366530     0.330780
      625.000     0.366855     0.330990
      626.000     0.367205     0.331230
      627.000     0.367565     0.331495
      628.000     0.367930     0.331765
      629.000     0.368295     0.332035
      630.000     0.368660     0.332295
      631.000     0.369045     0.332600
      632.000     0.369450     0.332925
      633.000     0.369855     0.333245
      634.000     0.370260     0.333570
      635.000     0.370665     0.333895
      636.000     0.371100     0.334250
      637.000     0.371545     0.334635
      638.000     0.371990     0.335015
      639.000     0.372430     0.335390
      640.000     0.372875     0.335770
      641.000     0.373000     0.336230
      642.000     0.373135     0.336700
      643.000     0.373265     0.337170
      644.000     0.373395     0.337640
      645.000     0.373530     0.338110
      646.000     0.373700     0.338635
      647.000     0.373870     0.339155
      648.000     0.374045     0.339685
      649.000     0.374215     0.340210
      650.000     0.374390     0.340740
      651.000     0.360560     0.328170
      652.000     0.360330     0.328370
      653.000     0.360110     0.328570
      654.000     0.359890     0.328770
      655.000     0.359670     0.328960
      656.000     0.359440     0.329160
      657.000     0.359220     0.329360
      658.000     0.359000     0.329560
      659.000     0.358780     0.329750
      660.000     0.358560     0.329950
      661.000     0.358330     0.330150
      662.000     0.358110     0.330350
      663.000     0.357890     0.330540
      664.000     0.357670     0.330740
      665.000     0.357440     0.330940
      666.000     0.357220     0.331140
      667.000     0.357000     0.331330
      668.000     0.356780     0.331530
      669.000     0.356560     0.331730
      670.000     0.356330     0.331930
