PDS_VERSION_ID         = PDS3
RECORD_TYPE            = STREAM
OBJECT                 = TEXT
  PUBLICATION_DATE     = 2014-02-19
  INTERCHANGE_FORMAT   = ASCII
  NOTE                 = "NAC hot pixel file for epoch 2011.5."
END_OBJECT             = TEXT
END

NAC hot pixel list. Lines 1 and 2 are column headings giving exposure time 
(sec) and gain state (e-/DN), respectively, of source dark images. Starting 
on line 3, first two columns indicate x and y value of hot pixel; columns 3 
through N-1 give median electron counts for each exposure bin, and last (Nth) 
column contains either the index of the exposure bin where saturation first 
occurs, or -1 if no saturation.

\begindata
      0.00000      0.00000      0.00000      10.0000      32.0000      100.000      320.000      560.000      1200.00
      0.00000      0.00000      12.8410      12.8410      30.2700      30.2700      30.2700      30.2700      30.2700
      964.000      361.000      313.782      28683.9      78173.9      123448.      123434.      123424.      123419.      3.00000
      845.000      326.000      157.810      16017.4      48606.3      117674.      123427.      123419.      123428.      4.00000
      213.000      482.000      182.588      11457.1      36767.2      101941.      123420.      123448.      123424.      4.00000
      699.000      675.000      215.240      10668.8      34924.3      98113.1      123446.      123444.      123437.      4.00000
      996.000      931.000      217.496      10743.1      35024.0      97864.0      123446.      123433.      123437.      4.00000
      62.0000      49.0000      137.562      11733.1      35494.8      95589.7      123425.      123439.      123433.      4.00000
      268.000      74.0000      155.246      12784.9      37374.1      93019.6      123452.      123444.      123440.      4.00000
      98.0000      87.0000      125.900      9776.38      30367.8      81713.9      123419.      123439.      123432.      4.00000
      430.000      51.0000      116.326      10868.4      32135.7      81319.1      123419.      123435.      123434.      4.00000
      899.000      52.0000      113.002      10075.6      29941.0      75094.0      123418.      123434.      123429.      4.00000
      573.000      212.000      118.596      9013.33      29231.7      73401.9      123434.      123449.      123434.      4.00000
      37.0000      647.000      156.181      7707.03      24345.1      67576.7      123434.      123442.      123436.      4.00000
      859.000      357.000      83.6386      3817.89      12383.4      53679.6      123421.      123425.      123428.      4.00000
      599.000      452.000      104.152      6731.13      21129.0      60386.7      123422.      123445.      123429.      4.00000
      408.000      377.000      82.7971      5529.96      15570.6      52655.0      123406.      123441.      123439.      4.00000
      449.000      264.000      63.6734      5614.82      18051.5      52059.3      123438.      123432.      123426.      4.00000
      967.000      351.000      68.9419      4203.94      13571.1      42822.8      123423.      123444.      123425.      4.00000
      25.0000      684.000      145.512      4870.85      16192.1      48455.0      120456.      123441.      123428.      5.00000
      117.000      230.000      74.0856      5765.29      17799.9      49946.1      118450.      123423.      123421.      5.00000
      776.000      573.000      134.311      4293.41      13969.3      42449.6      111770.      123442.      123432.      5.00000
      967.000      336.000      74.8213      5010.24      16032.3      46326.3      113856.      123428.      123427.      5.00000
      936.000      998.000      203.776      5820.03      18965.9      53988.3      119617.      123431.      123441.      5.00000
      149.000      356.000      65.8200      4985.76      16477.8      47660.6      113968.      123432.      123427.      5.00000
      984.000      295.000      48.3256      4147.72      14159.1      42024.6      107650.      123423.      123436.      5.00000
      843.000      421.000      74.9546      3813.41      12842.2      39206.4      104841.      123428.      123430.      5.00000
      632.000      885.000      184.562      3542.71      12283.5      38496.7      103598.      123427.      123429.      5.00000
      544.000      256.000      55.3479      3111.36      9821.39      30754.9      96709.7      123419.      123426.      5.00000
      549.000      905.000      202.078      3783.93      13092.1      40488.8      104339.      123445.      123438.      5.00000
      910.000      336.000      68.5136      3245.55      10704.2      32996.3      97630.1      123428.      123427.      5.00000
      345.000      213.000      62.1548      5128.59      16062.7      44830.3      106194.      123450.      123433.      5.00000
      401.000      634.000      127.970      3546.20      11603.6      36554.9      99170.4      123437.      123437.      5.00000
      689.000      807.000      179.919      2643.09      9045.56      30213.3      93209.6      123443.      123437.      5.00000
      123.000      79.0000      53.9953      4607.49      13878.3      38829.8      99345.6      123444.      123440.      5.00000
      242.000      621.000      162.910      2883.55      9894.27      31705.9      93813.0      123429.      123425.      5.00000
      842.000      1000.00      202.333      3726.90      12363.3      37672.9      95739.4      123435.      123443.      5.00000
      578.000      312.000      78.2201      4651.01      14549.1      41665.6      98139.2      123437.      123425.      5.00000
      634.000      10.0000      46.4268      3802.98      11838.0      34830.1      91594.5      123442.      123435.      5.00000
      239.000      141.000      54.8952      3475.25      11186.7      33237.5      90267.2      123440.      123441.      5.00000
      581.000      381.000      62.1346      2567.34      8600.97      27404.2      85426.3      123439.      123429.      5.00000
      157.000      741.000      159.544      3138.90      10876.9      33511.4      90182.2      123443.      123430.      5.00000
      202.000      885.000      180.061      2309.97      8097.00      26661.7      84426.7      123427.      123429.      5.00000
      711.000      498.000      107.853      4837.84      15446.4      42850.9      96992.1      123426.      123426.      5.00000
      530.000      805.000      169.049      3149.22      10380.4      32074.5      88465.9      123440.      123437.      5.00000
      774.000      785.000      167.328      3068.28      10566.3      32692.8      89520.4      123428.      123426.      5.00000
      466.000      982.000      192.942      2766.70      9739.54      30824.0      86682.5      123434.      123429.      5.00000
      745.000      319.000      59.7214      2978.11      9579.62      29969.2      83071.0      123255.      123435.      5.00000
      964.000      360.000      33.5923      75.5684      155.571      228.741      44427.4      109312.      123423.      6.00000
      729.000      475.000      73.6644      3175.91      10526.9      32888.7      81434.6      123438.      123429.      5.00000
      874.000      134.000      29.5403      2285.76      7445.80      23319.5      73256.7      123433.      123431.      5.00000
      380.000      2.00000      29.8640      2116.68      6775.39      21355.7      69020.3      118937.      123433.      6.00000
      380.000      1.00000      32.7159      2253.06      6925.00      21478.0      68793.6      118571.      123433.      6.00000
      147.000      68.0000      27.3717      2746.60      8790.61      26552.7      76344.8      120498.      123438.      6.00000
      3.00000      473.000     -62.9068      1613.28      5960.75      20118.2      65481.2      112807.      123428.      6.00000
      181.000      823.000      165.880      1604.62      5662.26      18533.2      61250.0      107413.      123433.      6.00000
      523.000      169.000      49.2274      3185.85      9960.64      29274.5      80344.3      120661.      123436.      6.00000
      900.000      403.000      47.2893      2868.02      9514.74      28829.6      62309.8      106759.      123432.      6.00000
      285.000      111.000      35.7823      3481.55      10707.9      31454.0      82801.5      121420.      123440.      6.00000
      18.0000      679.000      144.994      2628.99      8956.20      27700.4      78106.3      117492.      123419.      6.00000
      1008.00      692.000      138.964      2250.96      7667.00      24247.6      72545.7      112823.      123422.      6.00000
      305.000      696.000      123.214      2318.02      7000.97      24334.2      69557.4      109664.      123436.      6.00000
      92.0000      413.000      54.5830      2397.62      7799.27      24616.7      70405.1      110078.      123434.      6.00000
      16.0000      444.000      85.8179      3364.12      11211.9      33120.6      84516.6      119994.      123429.      6.00000
      462.000      84.0000      31.2334      2690.51      8570.96      25931.5      72873.5      111061.      123426.      6.00000
      744.000      647.000      126.800      2531.96      8302.24      25927.6      72619.1      111160.      123436.      6.00000
      552.000      694.000      133.032      2015.23      6813.13      21843.5      64403.2      105207.      123428.      6.00000
      444.000      692.000      144.096      2186.61      7474.28      23701.2      69430.6      108531.      123422.      6.00000
      120.000      68.0000      17.1570      2464.22      7578.90      23339.2      67502.6      105391.      123438.      6.00000
      1000.00      337.000      43.3399      2467.40      7954.43      24514.6      69051.6      106498.      123425.      6.00000
      762.000      386.000      55.0692      2271.10      7712.28      24085.7      68746.5      106212.      123422.      6.00000
      647.000      265.000      27.5196      2649.18      8363.05      25383.6      69118.1      106288.      123428.      6.00000
      542.000      824.000      149.697      1738.66      6160.15      20403.9      63387.9      101959.      123435.      6.00000
      402.000      382.000      55.3274      2598.45      8421.34      25896.3      71627.6      107453.      123426.      6.00000
      681.000      578.000      109.523      2355.05      7887.21      24503.4      69416.5      105822.      123425.      6.00000
      411.000      683.000      149.211      1798.29      6126.13      19519.3      60961.3      99522.9      123425.      6.00000
      956.000      727.000      146.704      2024.06      6972.82      22343.7      65307.0      102509.      123433.      6.00000
      487.000      880.000      188.335      2207.02      7901.98      24803.7      69888.5      105552.      123428.      6.00000
      758.000      44.0000      33.0701      2440.16      7739.77      23303.3      65684.4      101618.      123441.      6.00000
      391.000      888.000      199.003      3225.63      10800.3      32030.8      80106.8      112495.      123435.      6.00000
      3.00000      884.000      8.90988      1456.28      5530.71      18873.3      59252.3      96520.2      123426.      6.00000
      738.000      875.000      183.508      2041.30      6928.49      22590.5      66506.6      101684.      123438.      6.00000
      817.000      592.000      135.066      2194.46      7542.31      23793.0      66070.3      100333.      123425.      6.00000
      919.000      199.000      29.9217      2218.56      7166.47      21941.0      62777.5      97606.3      123440.      6.00000
      236.000      340.000      65.3813      3086.85      10354.7      27848.6      76318.5      106917.      123437.      6.00000
      708.000      520.000      95.8892      1696.60      5450.69      17834.0      55665.4      91455.3      123423.      6.00000
      847.000      345.000      48.7381      2032.67      6826.23      21375.1      61737.5      95730.6      123434.      6.00000
      795.000      80.0000      34.2718      1893.76      6113.26      19077.0      57430.5      92440.0      123436.      6.00000
      76.0000      1017.00      169.348      1764.39      6331.76      21324.9      63518.1      97267.6      123429.      6.00000
      242.000      194.000      51.5104      2143.64      6920.31      21199.2      60911.9      94839.2      123432.      6.00000
      19.0000      1018.00      177.658      1558.40      5603.28      18618.2      57834.5      92970.1      123430.      6.00000
      996.000      930.000      123.392      117.161      186.251      286.788      5272.27      54693.7      123436.      6.00000
      491.000      588.000      124.724      1977.94      6660.85      20782.4      60528.3      94518.3      123434.      6.00000
      223.000      273.000      30.8372      1717.50      5451.57      16954.6      54071.4      89575.2      123441.      6.00000
      844.000      950.000      165.169      2248.14      8196.72      26075.2      69663.8      101042.      123431.      6.00000
      940.000      335.000      40.5484      1999.47      6567.75      20819.7      60002.2      93271.4      123431.      6.00000
      771.000      412.000      49.6885      1649.87      5404.09      17733.3      53125.4      87926.0      123431.      6.00000
      507.000      210.000      42.6535      1703.69      5600.94      17359.6      50123.5      85792.4      123439.      6.00000
      813.000      953.000      185.384      1952.55      6776.36      21895.2      62251.9      94375.9      123434.      6.00000
      484.000      945.000      154.411      1518.05      5233.92      17477.5      54352.1      88439.9      123429.      6.00000
      588.000      243.000      34.4586      1828.02      6052.10      18691.5      55280.0      88736.1      123441.      6.00000
      62.0000      48.0000      14.4889      62.3727      108.113      181.104      317.461      48187.2      123430.      6.00000
      335.000      245.000      37.7790      2123.52      6985.95      22049.1      61054.4      91953.0      123445.      6.00000
      277.000      703.000      145.434      1557.64      5182.45      16957.5      53438.0      86558.6      123434.      6.00000
      307.000      107.000      35.9804      2031.29      6349.00      19420.5      55316.3      87035.7      123430.      6.00000
      580.000      531.000      108.183      1915.51      6381.41      19902.9      57479.6      88728.4      123431.      6.00000
      166.000      840.000      174.533      1287.34      4580.87      15409.3      48381.2      82256.3      123425.      6.00000
      945.000      197.000      32.2535      2224.04      7153.23      21413.4      58683.2      88773.1      123436.      6.00000
      858.000      355.000      38.6371      1609.46      5507.88      17522.4      53277.8      84862.5      123427.      6.00000
      232.000      45.0000      24.1809      1920.89      6096.12      18493.2      53108.0      83999.9      123439.      6.00000
      197.000      16.0000      50.4473      3696.73      11265.6      31029.6      71651.0      97466.9      123438.      6.00000
      303.000      118.000      28.1340      1912.71      5954.40      18283.0      52560.9      83468.0      123425.      6.00000
      109.000      497.000      89.8347      1387.24      4510.06      14514.7      46401.9      78760.7      123419.      6.00000
      3.00000      19.0000     -152.744      1672.28      5550.54      17347.6      51505.4      81751.9      123424.      6.00000
      814.000      545.000      111.695      1561.45      5207.69      16663.2      50736.4      81238.3      123423.      6.00000
      615.000      474.000      124.011      3949.73      12955.7      39601.0      99395.1      116535.      123426.      6.00000
      703.000      632.000      102.606      1439.49      4912.16      15828.8      48669.8      78967.1      123440.      6.00000
      417.000      152.000      39.5708      1908.93      6064.90      18353.6      51815.9      80205.0      123425.      6.00000
      963.000      850.000      149.021      1215.91      4165.73      13568.2      44110.7      74642.0      123430.      6.00000
      505.000      470.000      74.5431      2697.93      8509.76      24952.0      62636.5      87860.9      123412.      6.00000
      359.000      241.000      44.6448      2129.14      6965.78      19760.1      54190.0      81303.8      123437.      6.00000
      264.000      101.000      26.9454      1491.20      4947.15      15049.8      46036.4      75258.6      123431.      6.00000
      719.000      958.000      190.051      1470.45      5102.10      16902.1      49743.9      78317.6      123437.      6.00000
      757.000      317.000      48.2605      1826.92      5911.84      18034.2      51258.4      78944.0      123429.      6.00000
      96.0000      767.000      141.076      1529.44      5015.07      15751.9      47351.0      75926.6      123432.      6.00000
      701.000      305.000      41.9102      1452.69      4845.25      15079.7      46181.5      74796.9      123433.      6.00000
      87.0000      156.000      38.3080      1488.10      4732.32      14697.9      44175.4      73169.7      123427.      6.00000
      210.000      160.000      42.8705      2162.46      6757.79      19786.7      53295.2      79739.8      123436.      6.00000
      798.000      803.000      154.577      1307.94      4585.68      14940.9      45986.5      74637.7      123434.      6.00000
      93.0000      236.000      50.0272      1375.26      4409.33      13727.0      43049.1      72091.8      123436.      6.00000
      617.000      756.000      131.587      1354.18      4375.77      14342.4      44859.4      73495.6      123435.      6.00000
      435.000      576.000      89.6002      1445.29      4813.25      15134.4      45734.3      73712.6      123436.      6.00000
      144.000      141.000      20.3613      1865.26      5811.18      17396.7      48810.2      75733.8      123441.      6.00000
      774.000      911.000      160.894      1530.79      5098.85      16104.2      47268.0      74730.8      123428.      6.00000
      977.000      227.000      21.5742      1173.05      3777.92      12187.1      39176.8      68256.8      123426.      6.00000
      667.000      246.000      50.0885      1436.98      4743.52      14947.5      44628.0      71543.2      123444.      6.00000
      428.000      800.000      161.860      1273.63      4277.52      13995.4      43542.1      70769.8      123436.      6.00000
      730.000      65.0000      14.8997      1378.22      4549.13      14152.7      42800.2      69818.8      123436.      6.00000
      624.000      893.000      179.258      1296.88      4367.79      14221.0      43465.0      70333.4      123411.      6.00000
      0.00000      233.000     -286.391      1140.14      4340.36      13694.2      41631.1      68616.3      123430.      6.00000
      329.000      799.000      156.512      1024.82      3363.71      11189.2      37582.9      65743.9      123439.      6.00000
      578.000      933.000      190.272      1016.08      3426.04      11400.7      37483.7      65456.7      123430.      6.00000
      699.000      676.000      118.554      320.474      568.206      1048.06      5770.21      40889.1      123431.      6.00000
      90.0000      431.000      48.3293      1000.90      3250.01      10525.4      34034.4      59599.7      123437.      6.00000
      173.000      263.000      23.7317      1234.13      3868.32      12469.3      36942.2      59854.8      122306.     -1.00000
      857.000      398.000      50.9502      1690.93      5372.39      16561.3      47820.0      74151.8      121625.     -1.00000
      168.000      851.000      184.864      1602.10      5790.66      18026.7      50713.8      76579.7      122008.     -1.00000
