PDS_VERSION_ID         = PDS3
RECORD_TYPE            = STREAM
OBJECT                 = TEXT
  PUBLICATION_DATE     = 2014-02-19
  INTERCHANGE_FORMAT   = ASCII
  NOTE                 = "NAC hot pixel file for epoch 2005.8."
END_OBJECT             = TEXT
END

NAC hot pixel list. Lines 1 and 2 are column headings giving exposure time 
(sec) and gain state (e-/DN), respectively, of source dark images. Starting 
on line 3, first two columns indicate x and y value of hot pixel; columns 3 
through N-1 give median electron counts for each exposure bin, and last (Nth) 
column contains either the index of the exposure bin where saturation first 
occurs, or -1 if no saturation.

\begindata
      0.00000      0.00000      0.00000      1.00000      4.60000      10.0000      32.0000      100.000      320.000      560.000      1200.00
      0.00000      0.00000      12.8410      30.2700      30.2700      12.8410      30.2700      30.2700      30.2700      30.2700      30.2700
      443.000      545.000      394.222      44.2785      90.9056      34182.6      90872.6      123466.      123465.      123477.      123461.      5.00000
      213.000      482.000      183.183      1049.20      4540.25      13601.1      42890.2      114467.      123464.      123467.      123468.      6.00000
      98.0000      87.0000      90.0421      863.637      3815.16      8273.19      25501.0      72328.7      123475.      123487.      123469.      6.00000
      123.000      79.0000      106.498      1053.98      4541.29      9439.33      28636.9      73958.8      123469.      123464.      123467.      6.00000
      37.0000      647.000      187.408      914.461      3813.38      8363.04      26105.8      71437.9      123457.      123451.      123474.      6.00000
      919.000      199.000      109.284      866.502      3632.72      7267.73      22412.4      62269.9      123468.      123478.      123468.      6.00000
      599.000      452.000      119.163      775.025      3450.10      7203.51      22457.8      61785.9      123466.      123460.      123468.      6.00000
      227.000      664.000      175.953      763.976      3125.89      5677.38      18094.1      51593.9      123474.      123481.      123457.      6.00000
      936.000      998.000      206.412      59.7240      91.1529      5535.87      17702.4      49888.0      115641.      123461.      123466.      7.00000
      552.000      694.000      158.631      507.347      2028.06      4312.02      13940.7      41111.7      105317.      123473.      123476.      7.00000
      444.000      692.000      168.639      457.254      1756.61      3913.33      12846.0      38234.7      101717.      123470.      123481.      7.00000
      689.000      807.000      180.718      364.265      1363.30      2918.16      9765.29      30973.6      94480.5      123471.      123478.      7.00000
      149.000      356.000      91.4923      415.649      1906.39      4363.31      13974.0      40597.7      101604.      123490.      123470.      7.00000
      578.000      312.000      100.282      482.812      2180.35      4941.69      15211.9      42001.9      98447.8      123463.      123467.      7.00000
      711.000      498.000      126.704      542.502      2481.97      5155.77      15931.1      43447.6      98077.5      123454.      123461.      7.00000
      18.0000      679.000      126.030      339.248      1482.33      3056.27      10259.0      31316.9      85852.1      123456.      123459.      7.00000
      443.000      546.000      167.707      46.9017      89.1444      339.136      518.748      873.781      48886.9      109130.      123457.      8.00000
      462.000      84.0000      36.0953      277.120      1241.86      2786.93      8848.09      26495.9      75323.9      115535.      123464.      8.00000
      634.000      10.0000      41.8326      375.567      1756.19      3103.53      10079.2      27757.2      76750.4      116240.      123465.      8.00000
      487.000      880.000      203.247      359.093      1483.67      3130.17      9704.43      29690.4      79827.8      118241.      123461.      8.00000
      762.000      386.000      54.7526      304.282      1361.23      2725.75      8838.25      26690.9      74776.1      114106.      123474.      8.00000
      147.000      68.0000      55.1535      266.578      1240.48      2516.60      7902.93      23964.8      68644.9      108679.      123468.      8.00000
      744.000      647.000      136.043      296.754      1361.51      2702.38      8550.41      25856.5      72263.8      110284.      123474.      8.00000
      305.000      696.000      167.621      280.029      1120.06      2358.79      7789.83      24129.6      68600.4      107178.      123469.      8.00000
      617.000      756.000      139.227      339.760      1361.73      2342.34      7679.00      24236.4      70321.7      107560.      123464.      8.00000
      239.000      141.000      39.3394      150.810      666.076      2318.98      7389.09      22380.9      64339.2      100892.      123466.      8.00000
      844.000      950.000      168.374      283.028      1241.45      3018.22      9968.50      29994.1      76521.8      108883.      123481.      8.00000
      847.000      345.000      63.8823      257.421      1119.92      2270.79      7320.06      22389.0      63817.3      98630.9      123466.      8.00000
      817.000      592.000      138.946      278.662      1120.05      2405.74      7783.42      23899.6      67543.5      100869.      123467.      8.00000
      795.000      80.0000      18.8012      222.765      909.217      1904.42      6268.68      19260.7      57869.8      93124.9      123463.      8.00000
      691.000      97.0000      22.1035      250.980      1000.04      2268.98      7244.90      21138.2      62235.6      95687.8      123461.      8.00000
      857.000      398.000      54.6927      355.505      1483.77      3446.64      10650.4      30589.3      74268.9      102483.      123457.      8.00000
      719.000      958.000      194.433      291.188      1120.61      2355.62      7735.59      24012.7      64817.8      95755.5      123467.      8.00000
      277.000      703.000      135.123      216.062      907.830      1677.84      5418.25      17695.0      54280.5      87697.4      123453.      8.00000
      242.000      194.000      54.3950      303.193      1241.43      2143.72      6677.43      20215.0      58127.1      89448.4      123471.      8.00000
      307.000      107.000      19.7406      244.160      1000.03      2060.59      6515.41      19630.5      56111.0      87822.1      123465.      8.00000
      232.000      45.0000      26.9044      192.902      908.194      1930.90      6159.69      18383.2      52845.3      83558.2      123459.      8.00000
      363.000      225.000      45.4309      138.227      454.909      1408.32      4488.69      14033.3      44783.5      77599.5      123460.      8.00000
      580.000      531.000      99.7529      211.451      907.628      1848.30      5943.47      17969.9      52325.2      82064.6      123476.      8.00000
      758.000      44.0000      31.1670      70.4462      363.358      1759.14      5464.82      16686.9      49218.6      79381.4      123458.      8.00000
      213.000      483.000      84.2624      61.8325      180.937      219.227      361.142      661.004      12521.7      52668.1      123467.      8.00000
      202.000      885.000      198.632      202.553      666.303      1248.52      4262.03      13826.8      44399.0      75845.2      123463.      8.00000
      417.000      152.000      39.6685      217.361      925.294      1947.95      6124.32      18415.6      51796.2      79993.8      123484.      8.00000
      988.000      967.000      196.607      221.901      666.308      1579.63      5486.73      16836.4      49444.4      78442.1      123454.      8.00000
      757.000      317.000      46.0063      227.038      908.051      1931.81      6119.83      18445.8      52071.6      79978.3      123466.      8.00000
      798.000      803.000      152.054      211.538      786.728      1470.10      5040.81      15796.5      47191.9      76502.2      123477.      8.00000
      624.000      893.000      185.870      217.957      786.981      1593.70      5082.63      16251.2      48316.3      76932.9      123466.      8.00000
      173.000      726.000      135.811      199.415      787.298      1580.30      5278.83      16290.5      47549.0      75144.8      123467.      8.00000
      87.0000      156.000      34.6553      182.218      787.484      1491.52      4712.99      14311.7      43458.2      71667.7      123471.      8.00000
      774.000      911.000      181.426      243.819      786.793      1603.38      5222.52      16119.8      47454.3      74289.6      123473.      8.00000
      675.000      951.000      198.017      193.319      666.624      1385.25      4554.76      14397.6      43797.5      71239.6      123479.      8.00000
      329.000      799.000      148.675      166.769      574.826      1048.08      3310.75      10746.6      34773.0      61075.3      123474.      8.00000
      100.000      807.000      149.774      55.5302      91.9627      1028.79      3268.79      10515.3      33908.1      59015.3      122170.     -1.00000
      191.000      582.000      105.037      199.770      786.726      1446.71      4731.16      14808.3      43705.6      70214.3      121051.     -1.00000
      665.000      677.000      122.195      212.731      666.942      1433.18      4545.24      14283.5      42466.7      68451.8      121067.     -1.00000
      985.000      997.000      171.705      173.279      575.474      1332.38      4366.90      13875.8      41386.6      66916.0      120698.     -1.00000
      96.0000      767.000      151.417      196.920      672.485      1404.64      4327.14      13850.5      41033.9      66547.5      120067.     -1.00000
      500.000      704.000      124.438      183.469      575.588      1204.47      3897.59      12411.6      38360.1      63880.4      119714.     -1.00000
      380.000      2.00000      14.6438      107.859      570.600      1080.08      3235.34      9975.98      32162.6      56330.7      118735.     -1.00000
      380.000      1.00000      17.2856      109.986      570.568      1064.33      3399.09      10365.9      32677.5      56924.8      118459.     -1.00000
      64.0000      477.000      61.6461      142.265      574.247      1103.43      3414.53      10762.8      33823.8      58097.0      117266.     -1.00000
      173.000      263.000      36.5507      115.856      575.743      1091.29      3647.96      10945.8      33284.0      69784.9      115665.     -1.00000
      210.000      160.000      44.2024      206.499      908.623      1718.17      5424.47      16276.3      45370.6      70018.2      115305.     -1.00000
      0.00000      233.000     -256.224     -123.382      364.253      1127.64      4099.93      12858.8      38318.1      63826.9      115259.     -1.00000
      813.000      953.000      191.480      88.6198      89.1765      1538.35      4973.59      15608.8      45125.5      70022.5      114936.     -1.00000
      974.000      1018.00      164.947      166.056      454.783      1104.54      3404.67      11343.7      36208.6      60938.6      114228.     -1.00000
      1023.00      496.000      145.986      150.870      453.828      1337.77      4130.97      12300.8      37629.8      61876.6      112498.     -1.00000
      155.000      102.000      42.2129      22.7577      1.12862      1613.43      5115.14      15220.2      43182.8      67122.3      111298.     -1.00000
      290.000      246.000      51.2094      94.2016      363.080      1551.40      4738.96      14371.5      42563.7      67272.9      111094.     -1.00000
      802.000      40.0000      30.4688      165.300      666.150      1408.09      4492.62      13761.2      39970.8      63686.0      109958.     -1.00000
      144.000      995.000      189.362      195.547      666.285      1435.71      4343.90      13543.2      40243.7      64400.1      110676.     -1.00000
      566.000      332.000      55.7813      166.702      574.662      1207.41      3897.67      12010.5      36223.3      59069.6      108552.     -1.00000
      213.000      481.000      70.1668      48.7792      90.6132      82.5975      112.252      227.516      8798.08      34898.5      108461.     -1.00000
      977.000      227.000      34.7930      99.5821      454.912      889.967      2753.01      8747.35      27732.3      48320.1      107065.     -1.00000
      488.000      921.000      179.929      47.2050      91.0016      1102.50      3665.22      11542.2      35542.6      58659.8      107639.     -1.00000
      830.000      978.000      209.073      65.7797      91.0839      1286.73      4058.50      13216.3      39116.3      62561.1      105994.     -1.00000
      845.000      863.000      166.873      166.209      455.043      946.386      2907.53      9379.61      30758.2      53048.0      104600.     -1.00000
      43.0000      578.000      80.5532      150.450      453.956      951.994      3157.26      9878.09      31259.4      53582.4      104263.     -1.00000
      64.0000      357.000      41.0779      167.658      665.278      1307.03      4097.55      12568.8      37032.3      59118.5      103377.     -1.00000
      542.000      622.000      117.659      48.6230      91.2689      1150.02      3568.44      11514.0      35102.3      57554.4      102780.     -1.00000
      741.000      807.000      167.877      91.8352      273.583      929.287      3009.03      9393.20      29960.9      51655.9      102782.     -1.00000
      755.000      324.000      43.5314      126.684      574.305      988.738      3053.87      9552.85      30087.6      51623.5      100956.     -1.00000
      782.000      980.000      190.072      215.413      666.297      1300.35      4272.39      13151.9      37656.5      59019.4      100265.     -1.00000
      181.000      823.000      175.107      145.051      455.211      829.710      2557.52      8101.02      26857.8      47496.2      99650.8     -1.00000
      1.00000      244.000     -231.011     -92.7903      272.232      754.399      2949.06      9636.46      30119.9      50729.4      98885.0     -1.00000
      973.000      430.000      52.2565      148.858      666.677      1131.58      3605.00      11126.1      33586.0      54856.6      98808.4     -1.00000
      793.000      30.0000      16.5788      80.4096      451.641      866.468      2818.50      8660.52      27233.5      47176.9      98270.5     -1.00000
      523.000      626.000      125.654      174.289      575.687      1163.90      3775.44      11597.2      34514.4      55890.4      98723.7     -1.00000
      460.000      705.000      129.578      122.547      453.841      996.223      3122.22      9731.92      30485.5      51530.0      98155.5     -1.00000
      584.000      74.0000      13.0471      182.060      575.917      1373.48      3642.51      11301.9      33268.1      54314.9      97297.0     -1.00000
      325.000      995.000      200.382      155.749      454.395      842.689      2655.41      8670.03      28434.8      48684.1      95259.1     -1.00000
      777.000      92.0000      17.2672      125.780      575.882      1176.62      3863.90      11676.5      33972.3      54318.1      94323.5     -1.00000
      672.000      486.000      62.3879      98.4543      453.610      801.815      2631.11      8390.59      26788.0      46329.6      93465.8     -1.00000
      726.000      603.000      121.546      147.398      666.192      1120.33      3531.33      10970.5      32428.3      52198.7      92212.9     -1.00000
      62.0000      49.0000      38.1685      144.813      575.119      1140.86      3518.33      10607.4      31253.5      50743.6      90837.2     -1.00000
      814.000      545.000      71.0987      138.734      454.146      883.388      2782.37      8831.40      27586.9      46813.5      90105.1     -1.00000
      987.000      627.000      77.5419      119.673      454.060      917.802      2862.14      9120.16      28258.6      47231.0      89755.0     -1.00000
      476.000      340.000      35.0402      118.253      454.214      1059.02      3269.26      10096.6      29951.0      49046.4      88969.4     -1.00000
      996.000      931.000      146.476      56.0262      91.2098      746.802      2430.70      7811.31      25524.5      43737.1      89249.9     -1.00000
      576.000      320.000      30.2891      184.901      574.942      1131.75      3312.17      10112.3      30470.4      49224.1      88264.3     -1.00000
      501.000      448.000      62.9180      147.990      574.626      915.518      1311.61      4001.45      12457.3      48183.8      88355.6     -1.00000
      424.000      78.0000      28.7422      116.812      575.918      954.227      2953.79      9122.62      27701.7      46293.6      88006.8     -1.00000
      771.000      492.000      86.2849      140.599      574.783      966.417      3084.39      9719.53      29344.9      48405.3      88302.5     -1.00000
      831.000      59.0000      32.1839      102.823      454.463      915.426      2853.55      8831.78      27108.9      45619.9      87742.2     -1.00000
      540.000      708.000      126.959      92.9633      363.861      830.893      2667.37      8520.10      26957.2      45526.9      87433.1     -1.00000
      941.000      993.000      161.036      124.665      363.586      689.808      2250.00      7231.01      24170.4      41904.8      87266.8     -1.00000
      855.000      422.000      39.8874      86.6866      363.872      785.288      2841.47      7670.08      26830.6      45876.2      86412.7     -1.00000
      705.000      164.000      19.7754      101.342      454.618      899.268      2755.00      8523.50      26293.1      43959.3      85743.0     -1.00000
      466.000      294.000      45.4478      149.073      454.683      940.340      2892.44      8846.97      27014.8      45029.9      85793.6     -1.00000
      247.000      466.000      76.9173      109.900      454.493      830.026      2493.34      7625.19      24235.9      41867.9      85937.4     -1.00000
      561.000      1015.00      167.670      133.395      363.913      782.694      2411.36      7926.68      25551.7      43628.0      85628.2     -1.00000
      312.000      158.000      27.5739      99.6546      455.129      876.258      2783.40      8677.78      26472.7      44603.6      84311.0     -1.00000
      531.000      270.000      46.7533      38.9410      91.2256      962.012      3023.16      9228.98      27263.1      45661.9      83704.4     -1.00000
      898.000      710.000      138.373      150.097      575.814      712.178      2265.85      7343.86      23717.6      41043.4      83668.6     -1.00000
      704.000      185.000      31.8526      80.1782      272.945      779.018      2466.00      7549.47      23984.2      40909.4      82950.4     -1.00000
      207.000      732.000      128.162      133.763      454.154      887.708      2720.83      8632.36      26452.0      44161.9      82740.1     -1.00000
      255.000      8.00000      3.77540      76.7482      363.774      797.861      2481.26      7647.20      23603.0      40408.0      81958.9     -1.00000
      1019.00      474.000      39.6950      119.976      575.258      829.436      2655.44      8431.91      26078.0      39062.3      84966.5     -1.00000
      460.000      592.000      107.322      138.437      372.864      801.314      2486.37      7672.53      24210.1      41168.3      81136.5     -1.00000
      592.000      399.000      31.8159      104.794      363.806      710.468      2195.73      6877.00      21981.6      38627.0      80467.3     -1.00000
      780.000      905.000      156.843      160.956      454.473      869.911      2037.47      8886.33      27382.6      45022.3      80889.4     -1.00000
