PDS_VERSION_ID         = PDS3
RECORD_TYPE            = STREAM
OBJECT                 = TEXT
  PUBLICATION_DATE     = 2014-02-19
  INTERCHANGE_FORMAT   = ASCII
  NOTE                 = "NAC hot pixel file for epoch 2012.6."
END_OBJECT             = TEXT
END

NAC hot pixel list. Lines 1 and 2 are column headings giving exposure time 
(sec) and gain state (e-/DN), respectively, of source dark images. Starting 
on line 3, first two columns indicate x and y value of hot pixel; columns 3 
through N-1 give median electron counts for each exposure bin, and last (Nth) 
column contains either the index of the exposure bin where saturation first 
occurs, or -1 if no saturation.

\begindata
      0.00000      0.00000      0.00000      10.0000      32.0000      100.000      320.000      560.000      1200.00
      0.00000      0.00000      12.8410      12.8410      30.2700      30.2700      30.2700      30.2700      30.2700
      343.000      526.000      442.042      40287.8      103238.      123439.      123438.      123426.      123421.      3.00000
      845.000      326.000      176.996      15605.3      48499.5      117712.      123424.      123435.      123424.      4.00000
      964.000      361.000      192.496      17876.8      51895.1      118799.      123430.      123426.      123426.      4.00000
      268.000      74.0000      198.672      16762.8      47370.5      110355.      123435.      123426.      123415.      4.00000
      996.000      931.000      214.934      10571.8      34683.7      96803.0      123425.      123435.      123405.      4.00000
      213.000      482.000      154.424      10109.1      33018.4      92851.7      123437.      123421.      123417.      4.00000
      98.0000      87.0000      110.267      9770.96      30071.7      81444.1      123434.      123436.      123436.      4.00000
      430.000      51.0000      116.849      9953.19      29964.8      77035.3      123432.      123432.      123433.      4.00000
      573.000      212.000      106.610      8861.61      27611.6      73197.5      123428.      123437.      123431.      4.00000
      37.0000      647.000      170.926      7964.45      25225.1      69961.2      123434.      123411.      123428.      4.00000
      466.000      770.000      183.842      6198.66      21973.2      63038.8      123432.      123430.      123419.      4.00000
      899.000      52.0000      97.3048      8440.53      25037.6      63468.2      123433.      123432.      123431.      4.00000
      599.000      452.000      127.722      6518.02      20675.3      58300.8      123428.      123427.      123424.      4.00000
      269.000      522.000      138.229      6199.02      19831.1      55685.9      123436.      123425.      123422.      4.00000
      967.000      351.000      69.8966      4140.00      13483.2      42513.0      123422.      123434.      123419.      4.00000
      408.000      377.000      100.097      6589.65      21105.3      49527.1      123414.      123428.      123428.      4.00000
      25.0000      684.000      156.097      4654.09      15560.7      46426.6      117219.      123413.      123422.      5.00000
      466.000      982.000      233.901      3979.61      13776.6      42484.7      113006.      123434.      123425.      5.00000
      117.000      230.000      76.5661      5687.15      17774.8      49948.6      118260.      123412.      123421.      5.00000
      523.000      169.000      57.4472      5085.51      16098.6      45732.6      114649.      123430.      123425.      5.00000
      776.000      573.000      132.222      4140.27      13737.7      41878.1      110500.      123429.      123416.      5.00000
      967.000      336.000      62.0215      4968.15      15932.3      45978.4      113459.      123424.      123423.      5.00000
      984.000      295.000      64.1411      4473.33      14226.9      42736.8      108552.      123428.      123422.      5.00000
      843.000      421.000      80.6925      3815.81      12850.6      39582.5      105792.      123416.      123429.      5.00000
      149.000      356.000      75.6725      4606.16      15216.2      44982.6      109331.      123430.      123424.      5.00000
      544.000      256.000      53.1147      3043.77      9804.99      30744.2      96227.4      123428.      123426.      5.00000
      936.000      998.000      197.918      3896.54      13311.8      41344.2      104999.      123417.      123440.      5.00000
      92.0000      413.000      101.887      6015.55      18891.9      51046.0      111829.      123422.      123423.      5.00000
      549.000      905.000      198.002      3663.51      12847.9      39978.6      103250.      123432.      123429.      5.00000
      842.000      1000.00      220.683      4131.22      13695.3      41509.2      104070.      123417.      123442.      5.00000
      910.000      336.000      71.9973      3158.67      10453.4      32665.7      96690.4      123424.      123423.      5.00000
      689.000      807.000      171.163      2629.75      9012.59      29621.9      92532.7      123428.      123419.      5.00000
      239.000      141.000      58.4538      3849.26      12313.6      36571.8      97258.7      123426.      123417.      5.00000
      242.000      621.000      151.769      2866.35      9847.58      31628.2      93184.4      123429.      123418.      5.00000
      449.000      264.000      70.1740      3827.08      12429.6      36598.2      94642.4      123419.      123427.      5.00000
      142.000      23.0000      39.9039      3677.21      11290.6      32708.7      89985.8      123402.      123399.      5.00000
      774.000      785.000      162.941      3107.87      10733.5      33278.9      91369.3      123429.      123421.      5.00000
      634.000      10.0000      37.1650      3767.49      11808.9      34639.7      90683.1      123427.      123428.      5.00000
      157.000      741.000      150.104      3155.20      10807.5      33348.7      90003.0      123438.      123434.      5.00000
      711.000      498.000      112.423      4727.47      15176.6      42345.6      96469.1      123424.      123423.      5.00000
      581.000      381.000      63.9695      2533.33      8318.26      26342.2      83498.8      123419.      123425.      5.00000
      578.000      312.000      80.0673      4824.49      14784.7      40996.8      94558.4      123430.      123419.      5.00000
      481.000      99.0000      45.1772      4402.87      13510.3      37991.1      91419.7      123419.      123414.      5.00000
      123.000      79.0000      42.6055      3604.25      11334.2      33421.8      87107.8      123430.      123430.      5.00000
      874.000      134.000      36.5181      2478.84      7997.93      25314.8      79602.0      123430.      123423.      5.00000
      285.000      111.000      49.3163      3574.66      11065.7      32340.1      84689.5      123426.      123419.      5.00000
      859.000      357.000      79.7117      4269.07      16792.3      47132.3      91002.9      123428.      123425.      5.00000
      707.000      781.000      158.935      1988.16      6891.20      22551.2      71521.8      117711.      123415.      6.00000
      282.000      25.0000      34.1981      2442.21      7814.83      24313.2      73612.1      118246.      123395.      6.00000
      147.000      68.0000      30.1940      2739.95      8791.37      26496.0      76534.6      120359.      123413.      6.00000
      343.000      527.000      192.165      439.471      803.782      1838.37      49104.4      100621.      123427.      6.00000
      181.000      823.000      177.295      1602.05      5432.80      18882.3      62408.4      108196.      123428.      6.00000
      1000.00      337.000      59.0410      2817.91      9207.97      28174.3      77933.2      117617.      123424.      6.00000
      651.000      420.000      87.1730      2209.69      7430.94      23795.8      71075.3      112574.      123431.      6.00000
      745.000      319.000      60.8633      2874.08      9321.42      28404.2      79602.5      118623.      123423.      6.00000
      3.00000      473.000     -81.5307      1435.28      5395.65      18377.2      60367.3      104308.      123429.      6.00000
      18.0000      679.000      116.577      2525.17      8752.77      27659.5      77640.5      116928.      123414.      6.00000
      1008.00      692.000      115.312      2222.92      7521.13      24050.8      72283.1      112921.      123416.      6.00000
      499.000      723.000      147.872      2177.10      7584.24      23959.2      71784.3      112109.      123422.      6.00000
      343.000      525.000      103.322      91.0070      161.828      239.553      45939.5      92534.5      123420.      6.00000
      380.000      2.00000      27.8708      1794.55      5664.81      18044.8      58064.0      101007.      123433.      6.00000
      380.000      1.00000      34.2734      1861.44      5924.41      18654.3      58756.5      101252.      123434.      6.00000
      120.000      68.0000      43.0351      2586.68      8045.45      24559.3      70481.6      109420.      123413.      6.00000
      487.000      880.000      172.466      2416.53      8505.72      26969.5      75098.4      112572.      123428.      6.00000
      305.000      696.000      110.863      2273.45      7649.80      24144.5      68962.9      107646.      123430.      6.00000
      444.000      692.000      153.260      2078.36      7256.43      23056.6      68559.6      107074.      123416.      6.00000
      345.000      213.000      63.5170      4410.94      18043.3      38577.1      72320.7      123407.      123432.      5.00000
      762.000      386.000      63.3032      2276.72      7613.23      23903.9      68347.0      105923.      123420.      6.00000
      744.000      647.000      147.446      2468.48      8450.87      24769.6      69768.4      106883.      123428.      6.00000
      462.000      84.0000      25.2909      2517.84      7995.88      24337.2      69106.9      106025.      123434.      6.00000
      681.000      578.000      123.729      2331.30      7959.73      24650.6      69803.6      106669.      123432.      6.00000
      391.000      888.000      200.635      3232.84      10806.8      31997.2      80511.0      113392.      123420.      6.00000
      956.000      727.000      166.349      2008.56      6886.14      22033.2      65020.6      101972.      123417.      6.00000
      411.000      683.000      137.100      1782.34      5842.97      19172.6      60646.4      98636.2      123421.      6.00000
      343.000      59.0000      26.3382      2366.87      7297.30      22236.1      64331.7      100800.      123420.      6.00000
      647.000      265.000      44.1594      2543.85      8251.69      25346.7      69205.9      104309.      123427.      6.00000
      758.000      44.0000      29.4336      2400.56      7532.30      22993.1      65137.2      101000.      123437.      6.00000
      552.000      694.000      157.887      2041.55      6845.72      21736.3      65894.2      101321.      123422.      6.00000
      236.000      340.000      78.1617      2817.86      9059.21      27400.3      71588.4      104997.      123428.      6.00000
      649.000      346.000      52.9247      1587.10      5280.12      17018.5      54129.6      92240.3      123423.      6.00000
      738.000      875.000      182.244      1980.07      6918.14      22358.4      66234.8      101197.      123432.      6.00000
      19.0000      1018.00      184.430      1647.89      5821.01      19536.7      60130.6      96729.6      123423.      6.00000
      900.000      403.000      58.4181      2883.16      9333.95      28771.9      68881.8      102359.      123431.      6.00000
      242.000      194.000      46.7117      2229.91      7091.34      21711.8      62551.7      97313.8      123421.      6.00000
      817.000      592.000      121.694      2287.96      7488.33      23385.0      66245.9      100078.      123428.      6.00000
      795.000      80.0000      35.2565      1902.82      6243.72      19433.5      58482.3      93939.3      123433.      6.00000
      588.000      243.000      47.5609      1986.74      6530.53      20061.0      59341.6      94598.8      123428.      6.00000
      76.0000      1017.00      208.185      1790.47      6444.06      21581.4      64220.1      98436.6      123420.      6.00000
      491.000      588.000      100.910      1977.15      6720.17      21175.0      61266.0      95605.8      123421.      6.00000
      996.000      930.000      147.142      105.828      174.706      281.091      5978.68      55480.5      123410.      6.00000
      847.000      345.000      57.7690      2047.43      6775.43      21409.0      61560.2      95474.5      123425.      6.00000
      3.00000      884.000      23.8636      1397.05      5274.72      18088.5      56372.4      91418.1      123423.      6.00000
      507.000      210.000      43.3750      2174.78      7046.89      21641.9      61861.6      94879.0      123429.      6.00000
      223.000      273.000      54.1807      1646.89      5298.73      16795.9      53427.7      88724.4      123431.      6.00000
      771.000      412.000      67.3937      1644.46      5368.87      16995.3      52973.6      88066.6      123426.      6.00000
      335.000      245.000      47.1427      2158.94      6926.62      20818.2      59442.5      92160.1      123428.      6.00000
      776.000      412.000      59.4051      2206.11      7297.81      22671.4      63280.5      94783.7      123426.      6.00000
      940.000      335.000      33.7852      1955.62      6579.38      20431.5      59052.9      91594.3      123424.      6.00000
      813.000      953.000      195.931      1915.97      6754.44      21860.8      62189.4      94129.2      123432.      6.00000
      964.000      360.000      41.8808      79.0285      150.103      246.459      4945.89      51849.9      123426.      6.00000
      844.000      950.000      195.462      2077.38      7542.26      24319.2      65757.0      96304.9      123432.      6.00000
      90.0000      431.000      54.8266      1372.48      4554.92      14655.4      47620.6      82812.2      123422.      6.00000
      139.000      0.00000      11.6443      1998.00      6104.33      18645.7      55523.7      88031.6      123434.      6.00000
      277.000      703.000      132.243      1501.26      5085.50      16982.7      53055.3      86393.3      123431.      6.00000
      580.000      531.000      90.6523      1886.34      6341.25      19979.0      57361.9      88766.6      123423.      6.00000
      578.000      933.000      214.631      1269.55      4289.58      14250.2      46987.0      81249.8      123410.      6.00000
      307.000      107.000      42.3564      2030.55      6425.13      19417.9      55511.9      86913.5      123421.      6.00000
      435.000      576.000      87.0647      1730.90      5870.51      18432.1      54247.8      85996.2      123425.      6.00000
      93.0000      236.000      46.7919      1562.51      5093.39      16004.6      49778.7      82422.6      123420.      6.00000
      358.000      246.000      53.2385      1943.82      6270.95      19021.4      54710.8      85694.9      123430.      6.00000
      9.00000      306.000      9.35751      2072.05      6944.20      21276.6      58378.7      88257.1      123432.      6.00000
      858.000      355.000      55.9025      1604.35      5416.51      17294.2      52368.8      83875.2      123425.      6.00000
      232.000      45.0000      33.8956      1907.14      6135.57      18411.2      53034.1      83990.1      123437.      6.00000
      303.000      118.000      23.5014      1886.67      6048.92      18311.9      52632.1      83206.4      123428.      6.00000
      264.000      101.000      33.8375      1629.77      5241.03      16230.1      49090.1      80315.9      123420.      6.00000
      3.00000      19.0000     -144.223      1665.69      5610.77      17455.6      51458.2      81690.6      123419.      6.00000
      617.000      756.000      150.669      1441.83      4900.09      16091.6      49709.9      80319.6      123429.      6.00000
      530.000      805.000      138.122      1461.25      4778.32      15510.8      48504.6      79181.2      123424.      6.00000
      814.000      545.000      98.3243      1521.48      5193.83      16491.6      50193.1      80213.7      123423.      6.00000
      945.000      197.000      46.9603      2028.55      6606.57      19983.8      55085.8      83522.8      123426.      6.00000
      963.000      850.000      156.859      1223.66      4188.34      13733.4      45081.9      76437.1      123417.      6.00000
      703.000      632.000      118.326      1419.98      4812.20      15590.6      48403.4      78420.1      123435.      6.00000
      693.000      236.000      39.9619      1691.47      5466.67      17133.7      50617.7      79728.9      123420.      6.00000
      505.000      470.000      93.1156      2663.00      8667.92      25318.8      63690.1      89082.2      123432.      6.00000
      514.000      852.000      168.492      1605.82      5719.53      18364.5      53199.5      81600.0      123409.      6.00000
      96.0000      767.000      147.997      1565.87      5119.54      16187.9      48708.3      78023.5      123424.      6.00000
      417.000      152.000      28.8851      1893.40      5966.68      18098.0      51537.4      79750.1      123414.      6.00000
      387.000      799.000      152.882      1562.75      5126.10      16264.0      49036.3      78152.9      123429.      6.00000
      757.000      317.000      56.2042      1797.49      5866.74      17909.9      50947.1      78638.2      123426.      6.00000
      798.000      803.000      152.817      1307.89      4548.99      15022.2      46353.2      75315.9      123428.      6.00000
      719.000      958.000      165.948      1443.73      4914.86      16450.0      49037.2      77230.4      123431.      6.00000
      708.000      520.000      106.713      1310.67      4292.57      13832.4      43537.6      72652.6      123419.      6.00000
      87.0000      156.000      33.3897      1467.18      4642.36      14513.7      43916.7      72724.6      123430.      6.00000
      667.000      246.000      45.9605      1520.23      4984.56      15553.1      46289.2      74192.6      123430.      6.00000
      109.000      497.000      84.6744      1216.14      3993.11      12809.8      41150.2      70148.5      123418.      6.00000
      774.000      911.000      172.297      1462.53      5011.07      15868.4      46980.8      74460.6      123434.      6.00000
      913.000      54.0000      26.5717      1502.91      4875.79      15302.9      45283.0      72761.9      123428.      6.00000
      632.000      885.000      174.588      1269.03      4297.64      14470.1      45155.4      72755.6      123422.      6.00000
      811.000      964.000      189.123      962.527      3312.89      11718.7      39145.9      68242.2      123423.      6.00000
      977.000      227.000      35.9246      1141.87      3744.82      12110.4      38986.6      67770.2      123418.      6.00000
      144.000      141.000      31.7519      1819.63      5634.22      17088.1      48124.1      74373.8      123406.      6.00000
      0.00000      233.000     -268.672      1139.58      4353.68      13713.0      41899.3      69043.0      123424.      6.00000
      329.000      799.000      153.279      997.259      3276.63      11017.9      36985.0      65349.7      123429.      6.00000
      570.000      606.000      105.067      1160.65      3967.80      12556.5      39804.5      66391.1      122629.     -1.00000
      345.000      13.0000      16.2793      1409.05      4433.29      13681.1      41211.0      67581.9      121802.     -1.00000
