PDS_VERSION_ID         = PDS3
RECORD_TYPE            = STREAM
OBJECT                 = TEXT
  PUBLICATION_DATE     = 2014-02-19
  INTERCHANGE_FORMAT   = ASCII
  NOTE                 = "NAC hot pixel file for epoch 2004.3."
END_OBJECT             = TEXT
END

NAC hot pixel list. Lines 1 and 2 are column headings giving exposure time 
(sec) and gain state (e-/DN), respectively, of source dark images. Starting 
on line 3, first two columns indicate x and y value of hot pixel; columns 3 
through N-1 give median electron counts for each exposure bin, and last (Nth) 
column contains either the index of the exposure bin where saturation first 
occurs, or -1 if no saturation.

\begindata
      0.00000      0.00000   0.00500000     0.100000     0.320000      1.00000      1.20000      3.20000      4.60000      8.20000      10.0000      26.0000      32.0000      38.0000      56.0000      120.000      220.000      380.000      1200.00
      0.00000      0.00000      12.8410      12.8410      12.8410      30.2700      30.2700      30.2700      30.2700      12.8410      30.2700      30.2700      30.2700      30.2700      30.2700      30.2700      30.2700      30.2700      30.2700
      919.000      199.000      28.7608      34.4854      39.9142      56.8206      1096.77      123.525      158.759      6770.51      318.799      751.289      41656.9      29347.3      1549.02      3228.92      5683.17      9414.61      27357.4     -1.00000
      98.0000      87.0000      92.3357      184.741      331.955      945.341      1093.58      2728.80      3882.55      6797.61      8314.60      21274.4      25869.6      30503.6      43765.0      84783.3      123483.      123469.      123498.      14.0000
      37.0000      647.000      128.407      202.971      342.718      866.561      1029.49      2692.48      3837.87      6921.61      8345.50      21347.8      26709.6      30219.1      43799.5      82741.9      123502.      123480.      123478.      14.0000
      599.000      452.000      112.089      171.732      313.999      806.126      960.617      2387.32      3384.28      6049.39      7251.28      18368.7      22129.5      26176.8      37301.7      71316.0      111820.      123476.      123482.      15.0000
      123.000      79.0000      103.932      186.024      407.076      971.965      1369.18      2929.04      4119.57      7831.80      8748.41      21694.7      26283.9      35623.1      43389.1      78804.2      113338.      123484.      123476.      15.0000
      766.000      863.000      57.0481      66.0510      51.9077      58.8494      491.767      80.9690      65.7770      3101.25      88.0761      133.496      363.528      13948.8      186.552      273.950      314.380      387.282      589.489     -1.00000
      726.000      603.000      43.3474      39.0775      32.1921      36.0783      454.781      60.9477      60.2084      4235.93      95.3345      127.513      1766.18      12457.7      180.475      250.966      305.098      381.458      497.359     -1.00000
      578.000      312.000      76.5749      125.383      210.273      508.354      619.654      1539.56      2229.62      4099.42      4938.44      12620.3      15587.5      17440.9      23217.4      44832.7      70862.0      106790.      123484.      16.0000
      689.000      807.000      97.2979      102.855      152.248      295.687      340.965      820.653      1102.41      2017.73      2379.61      6295.86      8132.45      9834.69      14329.1      30781.8      53765.9      90670.8      123474.      16.0000
      844.000      950.000      86.8241      121.312      179.819      354.250      429.781      968.732      1407.62      2594.58      3173.12      8481.58      10167.6      13349.3      18482.2      37631.3      62473.7      93484.6      123481.      16.0000
      762.000      386.000      59.2424      92.4223      143.440      303.066      361.889      896.491      1286.66      2401.05      2835.14      7291.48      9078.19      10617.2      15451.1      32075.3      55296.2      86587.3      123490.      16.0000
      305.000      696.000      53.2850      53.4973      53.1303      60.3880      359.610      93.8581      117.656      1932.32      175.035      296.964      378.518      9323.95      544.810      1003.14      1684.01      2684.87      8216.70     -1.00000
      487.000      880.000      75.5996      122.708      206.709      371.500      419.419      900.732      1327.24      2593.50      2778.22      7331.59      10693.9      11997.2      19423.2      39265.4      55236.1      85145.9      123475.      16.0000
      617.000      756.000      82.9495      98.2824      133.344      308.124      468.862      827.139      1154.47      2806.34      2228.48      6676.69      11273.2      13028.7      14480.2      30440.6      53047.2      83064.7      123490.      16.0000
      77.0000      547.000      65.0673      84.9067      115.411      244.407      274.367      662.736      941.646      1664.00      1984.22      5118.28      6249.50      7527.01      11159.3      23978.0      43662.1      73873.2      123476.      16.0000
      817.000      592.000      83.1591      89.8410      161.872      277.813      345.209      917.393      1149.86      1933.05      2410.39      6351.43      7880.42      9329.52      14078.6      28707.3      50099.8      77456.4      123475.      16.0000
      847.000      345.000      61.2029      67.3966      122.906      275.272      309.823      780.042      1097.13      1958.86      2326.51      6143.75      7608.33      8917.24      12980.4      27191.7      46908.9      74046.7      123501.      16.0000
      719.000      958.000      87.3930      103.487      154.749      297.879      352.047      782.607      1087.76      1926.41      2278.96      5999.40      7414.49      8830.80      12969.1      27069.9      46542.1      70713.8      123483.      16.0000
      307.000      107.000      20.6081      62.0754      91.9555      235.613      273.062      702.633      996.934      1698.13      2096.16      5355.33      6660.61      7756.45      11371.9      23234.8      40557.8      64988.3      123480.      16.0000
      277.000      703.000      78.1696      87.4426      146.011      234.831      270.481      596.139      829.585      1503.82      1728.34      4534.26      5560.09      6700.58      9898.98      21605.6      38927.6      63794.7      123479.      16.0000
      731.000      536.000      57.2249      83.9669      137.178      268.462      266.614      760.333      1056.84      1671.03      2298.52      6117.67      6874.01      8029.74      12958.8      26375.5      44909.0      68494.1      123482.      16.0000
      64.0000      357.000      54.7800      86.4197      111.684      239.237      300.805      714.025      995.577      1767.57      2150.22      5480.86      6667.55      7915.97      11734.9      24273.2      41958.9      65779.8      123476.      16.0000
      691.000      97.0000      19.6062      38.8288      85.3407      176.277      212.424      549.110      798.522      1410.61      1725.02      4394.89      5884.35      6284.88      9398.06      19584.4      34832.7      58476.6      123478.      16.0000
      232.000      45.0000      16.6922      57.6607      101.446      220.084      248.181      636.130      888.727      1667.52      1927.41      4992.37      6209.28      7203.64      10564.5      21821.1      38100.3      60898.7      123490.      16.0000
      755.000      324.000      52.0355      74.3172      94.0171      187.051      230.977      524.281      754.174      761.127      1604.92      4262.03      5166.20      6136.31      8945.39      19248.5      34196.1      57367.6      123477.      16.0000
      173.000      726.000      55.3360      97.1011      122.137      261.153      272.668      620.182      862.810      1516.80      1791.24      4837.61      5981.56      7070.09      10382.7      21764.3      37926.8      60557.1      123472.      16.0000
      417.000      152.000      36.2398      68.8248      92.7470      210.763      251.057      652.314      912.639      1613.99      1962.09      4973.17      6211.32      7319.42      10524.5      21933.8      37655.5      59935.7      123483.      16.0000
      757.000      317.000      47.0422      65.7232      101.523      239.013      268.299      631.707      914.115      1675.72      1981.98      5097.49      6232.63      7402.45      10812.9      22214.2      38192.5      60189.1      123478.      16.0000
      210.000      160.000      42.6228      63.8325      108.430      250.822      291.518      710.360      1021.91      1844.62      2156.07      5398.21      6674.44      7911.78      11384.9      23014.6      39491.7      60340.7      123481.      16.0000
      624.000      893.000      84.7101      98.9781      110.912      242.939      259.388      555.647      765.038      1435.92      1677.47      4305.48      5166.78      6263.76      9268.78      19687.4      34658.0      56300.3      123476.      16.0000
      207.000      732.000      78.3921      81.9910      111.505      228.745      74.7824      563.874      821.048      271.841      1744.78      4605.66      5581.44      751.081      9937.52      20688.3      35935.6      57017.6      123474.      16.0000
      774.000      911.000      83.4996      93.2493      121.125      232.187      248.739      547.391      778.341      1426.07      1631.75      4281.05      5373.76      6324.83      9409.45      19533.1      34325.3      54942.4      123481.      16.0000
      87.0000      156.000      41.6633      58.0061      80.6534      179.297      205.693      545.576      729.107      1267.07      1519.78      3938.76      4794.11      5712.91      8402.18      17532.6      31476.2      51684.4      123484.      16.0000
      462.000      84.0000      38.4266      41.1387      71.9537      168.929      222.722      512.516      719.116      1443.08      1546.40      3955.52      5412.40      6472.77      8379.74      17647.4      31275.8      51414.1      123493.      16.0000
      43.0000      578.000      57.3398      82.6683      107.250      204.685      213.515      510.962      698.033      999.282      1426.72      3812.45      4401.00      5300.59      8315.17      17557.3      31753.4      51688.1      123495.      16.0000
      213.000      482.000      60.1351      76.7523      79.7819      141.268      211.241      406.878      578.192      1200.16      1229.94      3152.56      4564.53      5535.83      6805.30      14856.5      27232.2      45080.3      123466.      16.0000
      64.0000      477.000      51.3855      78.6957      94.2160      172.055      231.199      395.452      548.294      1301.60      1125.16      2866.32      4953.43      5911.41      6239.88      13331.0      24246.2      41227.6      121667.     -1.00000
      723.000      909.000      77.4754      79.2200      64.8932      105.038      106.021      153.146      229.963      386.364      448.956      985.002      1174.86      1368.81      1968.28      4142.57      7382.62      12641.7      121654.     -1.00000
      191.000      582.000      68.6082      68.9110      101.560      185.368      232.079      511.507      712.961      1274.52      1483.27      3878.60      4805.01      5699.16      8493.54      17825.8      31372.4      50904.8      120758.     -1.00000
      795.000      80.0000      24.0759      2.61353      11.7868      20.8661      25.5127      43.2575      31.3145      1008.64      47.1686      113.986      115.526      349.412      142.304      239.328      293.365      342.520      385.914     -1.00000
      500.000      704.000      71.7391      66.3415      96.6702      186.743      188.744      429.392      582.119      1041.60      1183.69      3233.25      4012.43      4786.64      7057.77      15184.0      27356.8      45186.6      120317.     -1.00000
      744.000      647.000      53.0575      85.7833      92.3177      192.032      259.663      478.084      626.477      1417.94      1330.28      3435.21      4770.13      6184.20      7423.32      15767.8      27909.7      45945.3      118065.     -1.00000
      247.000      466.000      54.5595      69.4550      86.6745      158.056      163.918      395.852      521.610      906.202      1117.81      2747.23      3342.36      3956.28      5936.82      11900.5      23028.6      38928.9      114519.     -1.00000
      584.000      74.0000      19.5187      59.1101      49.9081      142.540      154.554      399.428      572.078      1036.45      1223.13      3177.71      3871.36      4576.77      6746.53      14026.8      25156.6      41397.3      112798.     -1.00000
      12.0000      288.000      12.8469      32.9075      44.6258      129.731      58.9005      363.081      555.307      1054.92      1277.79      3302.75      1776.44      2060.40      6586.73      13849.0      26865.2      44495.4      112757.     -1.00000
      977.000      227.000      32.9575      40.5046      59.4399      138.628      98.5253      356.970      475.476      501.489      1021.49      2592.73      2985.59      2199.20      5569.20      11979.6      22052.1      37277.6      111031.     -1.00000
      798.000      803.000      65.3844      73.1865      110.706      172.290      59.3320      393.045      547.972      108.197      1120.71      2959.64      6239.77      244.472      6781.23      14192.0      25291.3      41762.3      110152.     -1.00000
      985.000      997.000      69.0945      82.3311      99.2653      155.629      208.720      405.901      569.672      1036.48      1180.95      3147.08      3994.71      4616.15      6820.72      14587.7      26031.5      42894.3      110184.     -1.00000
      802.000      40.0000      23.4776      26.4293      59.1175      146.116      179.649      449.294      643.436      1192.05      1386.99      3676.72      4542.91      5288.93      7773.11      16146.3      28018.8      45928.5      107606.     -1.00000
      566.000      332.000      45.2056      37.6559      73.2484      144.647      173.210      393.323      549.999      976.618      1181.06      3056.71      3752.07      4446.21      6558.29      13880.0      24659.9      41112.2      106734.     -1.00000
      592.000      399.000      38.8488      52.2857      74.5473      135.385      157.997      301.047      463.625      902.162      966.523      2491.15      3334.07      3928.67      5327.46      11423.9      20749.6      35888.6      106743.     -1.00000
      845.000      863.000      69.8892      77.3529      102.651      160.856      182.268      375.155      500.634      848.119      999.705      2424.69      3052.58      3583.48      5213.64      11526.9      21404.9      36664.9      105495.     -1.00000
      552.000      694.000      58.9646      87.7719      94.5603      183.027      180.164      437.346      581.380      987.521      1234.52      3117.44      3816.78      4383.30      6673.72      14012.4      24928.7      40629.4      98388.6     -1.00000
      771.000      492.000      57.6614      64.1045      92.4630      155.207      172.622      389.282      543.092      977.429      1168.70      2965.56      3670.83      4307.48      6402.49      13416.0      24000.0      39418.0      96772.8     -1.00000
      325.000      995.000      77.0496      87.9195      104.902      148.130      163.131      335.221      464.293      754.286      905.493      2292.50      2833.09      3391.74      5126.76      11138.4      20201.5      34566.0      95966.4     -1.00000
      444.000      692.000      66.9050      58.8725      90.4696      148.834      317.478      371.123      521.622      1774.41      1045.53      2651.69      15962.1      8329.18      5785.73      12267.4      21964.2      36487.1      95200.4     -1.00000
      758.000      44.0000      19.1703      29.4107      74.5310      109.939      135.465      348.778      458.155      848.227      1021.13      2574.55      3134.76      3718.19      5505.28      11436.5      20593.0      34293.0      92011.8     -1.00000
      147.000      68.0000      17.2778      33.6514      84.3830      150.022      191.304      489.465      669.268      1186.09      1478.07      3736.79      4543.89      5363.67      7830.64      16583.8      40234.7      48657.8      123472.      16.0000
      476.000      340.000      44.7334      49.7090      97.3283      136.215      168.139      365.992      519.180      906.337      1059.24      2753.00      3451.96      4064.53      5988.11      12491.7      22199.3      36293.1      91997.0     -1.00000
      62.0000      49.0000      23.3660      35.0750      73.6119      144.640      166.334      391.796      553.084      974.344      1137.57      2838.27      3474.50      4170.31      6055.94      12604.9      22330.3      36211.9      90443.6     -1.00000
      466.000      294.000      41.4184      61.5092      88.0209      124.326      154.548      349.516      478.262      795.835      1029.13      2549.40      2966.29      3505.24      5321.97      11355.8      20442.7      33886.9      90432.0     -1.00000
      831.000      59.0000      24.2698      30.1315      59.4456      117.688      123.632      319.102      444.588      783.153      946.618      2381.28      2952.39      3522.47      5229.85      10938.2      19724.9      32924.6      89636.4     -1.00000
      945.000      352.000      23.2424      51.6193      32.2749      52.4451      60.9825      298.545      348.419      225.287      859.653      1754.40      792.834      990.601      388.041      692.692      17178.6      28639.0      410.564     -1.00000
      324.000      402.000      44.1100      46.1633      37.4505      53.5112      178.238      71.6128      77.1228      974.451      92.8972      164.782      3454.14      4070.11      245.142      385.474      535.737      709.133      89257.6     -1.00000
      563.000      903.000      74.3255      76.0801      94.2335      151.654      154.656      289.088      392.949      695.155      791.809      2057.07      2634.90      3145.68      4448.38      9591.43      17873.8      30424.2      89632.7     -1.00000
      501.000      448.000      41.3585      36.0319      73.6725      124.163      98.8318      312.615      401.077      504.114      846.179      2151.94      1762.73      2133.16      4660.11      9872.39      17396.1      28391.7      24733.4     -1.00000
      424.000      78.0000      20.3517      31.7436      54.2159      121.145      132.724      335.222      453.420      821.262      963.927      2417.47      2988.58      3545.79      5186.05      10827.7      19592.1      32463.3      88086.6     -1.00000
      576.000      320.000      50.4878      55.7451      87.0320      178.589      201.128      391.470      553.374      900.142      1097.79      2688.52      3301.90      3860.49      5622.08      11954.9      21388.8      34975.0      87306.2     -1.00000
      705.000      164.000      37.0222      46.2984      38.5063      114.053      121.307      270.048      398.695      719.876      901.481      2279.83      2814.72      3301.50      4887.00      10331.2      18542.3      31072.5      85766.0     -1.00000
      247.000      467.000      58.2062      52.1651      64.8035      127.604      115.193      232.448      334.281      569.225      654.269      1688.29      2033.47      2400.83      3510.61      7068.84      13763.5      24035.5      80522.4     -1.00000
      941.000      993.000      61.8151      81.7435      97.9886      145.397      136.585      269.013      348.150      626.166      745.835      1895.49      2232.26      2708.42      3904.38      8627.48      16020.6      28225.3      85760.6     -1.00000
