PDS_VERSION_ID         = PDS3
RECORD_TYPE            = STREAM
OBJECT                 = TEXT
  PUBLICATION_DATE     = 2014-02-19
  INTERCHANGE_FORMAT   = ASCII
  NOTE                 = "NAC hot pixel file for epoch 2008.1."
END_OBJECT             = TEXT
END

NAC hot pixel list. Lines 1 and 2 are column headings giving exposure time 
(sec) and gain state (e-/DN), respectively, of source dark images. Starting 
on line 3, first two columns indicate x and y value of hot pixel; columns 3 
through N-1 give median electron counts for each exposure bin, and last (Nth) 
column contains either the index of the exposure bin where saturation first 
occurs, or -1 if no saturation.

\begindata
      0.00000      0.00000      0.00000      10.0000      32.0000      100.000      120.000      320.000      560.000      1200.00
      0.00000      0.00000      12.8410      12.8410      30.2700      30.2700      30.2700      30.2700      30.2700      30.2700
      213.000      482.000      141.000      9158.97      29578.1      85005.8      115209.      123463.      123467.      123451.      5.00000
      62.0000      49.0000      130.257      11544.9      34966.1      93868.4      110076.      123460.      123461.      123463.      5.00000
      573.000      212.000      116.361      9505.80      29432.4      72260.1      84397.6      123458.      123450.      123454.      5.00000
      98.0000      87.0000      80.8539      8157.85      25446.9      72067.8      83709.3      123453.      123462.      123456.      5.00000
      430.000      51.0000      107.106      10295.7      30470.6      78057.7      89276.7      123459.      123465.      123461.      5.00000
      123.000      79.0000      117.119      9517.34      28669.6      73705.7      84072.7      123466.      123459.      123458.      5.00000
      37.0000      647.000      120.720      8243.72      25727.5      71440.3      81846.3      123454.      123457.      123456.      5.00000
      599.000      452.000      93.2427      7134.60      22043.3      61319.0      69823.1      123462.      123458.      123451.      5.00000
      738.000      875.000      89.7888      5177.24      17098.5      50329.4      46806.8      119319.      123463.      123465.      6.00000
      307.000      403.000      72.8360      4504.59      14474.2      44173.5      53712.5      121087.      123464.      123454.      6.00000
      531.000      500.000      106.419      5011.57      16034.4      47775.4      56073.1      121496.      123453.      123462.      6.00000
      117.000      230.000      72.1543      5421.89      16872.4      48138.5      54979.0      117025.      123461.      123456.      6.00000
      936.000      998.000      109.637      6277.17      20063.9      55113.8      63669.6      121570.      123458.      123446.      6.00000
      149.000      356.000      83.6422      5189.32      16479.0      47291.0      55269.3      113425.      123459.      123463.      6.00000
      561.000      19.0000      43.8325      3171.69      10041.0      31163.4      36803.0      97216.0      123469.      123459.      6.00000
      544.000      256.000      53.0458      3157.95      10067.4      31218.0      37723.7      97879.8      123459.      123458.      6.00000
      549.000      905.000      99.9591      3843.97      12766.9      39872.3      45078.3      102260.      123466.      123459.      6.00000
      874.000      134.000      49.6828      3017.61      9699.83      30165.2      36216.6      93692.5      123458.      123449.      6.00000
      444.000      692.000      83.3921      3787.01      12377.7      37587.3      44390.3      100714.      123459.      123459.      6.00000
      689.000      807.000      80.4466      2839.07      9473.88      30240.6      36271.7      93206.9      123461.      123454.      6.00000
      910.000      336.000      68.7113      3276.29      10548.8      32511.2      39069.1      95576.7      123462.      123448.      6.00000
      19.0000      1018.00      96.2264      2702.32      9211.72      29029.0      17263.3      44207.7      121573.      123455.      7.00000
      202.000      885.000      83.8396      2340.73      8123.12      26418.5      31478.8      83157.4      123457.      123451.      6.00000
      18.0000      679.000      80.0736      3118.41      10341.1      31869.3      37712.9      87237.5      123451.      123453.      6.00000
      711.000      498.000      88.2597      4985.25      15550.9      42586.1      49345.9      96413.3      123453.      123459.      6.00000
      3.00000      19.0000     -120.600      3081.80      10144.4      30745.2      36326.5      85176.5      123469.      123459.      6.00000
      701.000      371.000      61.1521      3198.51      10551.7      31764.2      37502.4      86308.7      123466.      123453.      6.00000
      555.000      944.000      88.6798      2307.07      8188.35      26622.0      31401.0      80034.2      123471.      123458.      6.00000
      487.000      880.000      81.4558      3302.61      10809.7      32514.3      38542.0      85877.2      123455.      123457.      6.00000
      239.000      141.000      44.0587      3335.99      10626.1      31418.1      36882.0      84086.4      123444.      123454.      6.00000
      378.000      749.000      71.4949      2263.65      7478.82      24226.0      27754.8      76946.6      123461.      123456.      6.00000
      578.000      312.000      62.9812      5181.41      16166.2      38779.1      47797.7      92185.3      123454.      123455.      6.00000
      462.000      84.0000      33.5784      2709.55      8549.23      25928.7      32428.1      73768.3      113669.      123463.      7.00000
      806.000      201.000      53.0211      3090.20      9612.32      28722.9      33650.7      78465.5      117100.      123453.      7.00000
      762.000      386.000      50.4487      2642.94      8516.82      26116.2      30984.2      73433.9      112319.      123452.      7.00000
      956.000      727.000      79.9256      2396.50      7868.11      24512.6      29132.9      70573.1      109981.      123461.      7.00000
      391.000      888.000      109.468      4035.33      12819.2      36817.2      47333.3      88846.2      122566.      123449.      7.00000
      744.000      647.000      69.3558      2523.68      8357.20      25703.4      32646.9      71722.1      109690.      123456.      7.00000
      588.000      243.000      38.7011      2361.02      7648.63      23522.2      22366.4      68036.2      106760.      123454.      7.00000
      305.000      696.000      74.9318      2400.91      7913.10      24662.0      29836.9      71072.3      108577.      123468.      7.00000
      169.000      475.000      50.4196      1804.79      5891.04      18388.7      22326.2      58448.6      99077.2      123447.      7.00000
      583.000      974.000      85.4332      1939.41      6609.40      21164.2      11000.0      63787.1      102485.      123462.      7.00000
      758.000      44.0000      32.6596      2500.82      7912.70      23834.1      28237.3      67183.7      104187.      123462.      7.00000
      894.000      642.000      67.3244      2295.33      7668.07      24281.4      28952.3      69531.1      105611.      123452.      7.00000
      147.000      68.0000      39.9608      2518.82      7889.53      23832.2      28179.2      74740.4      108756.      123452.      7.00000
      847.000      345.000      46.3115      2215.86      7207.71      22310.8      26638.5      63546.3      98283.1      123455.      7.00000
      919.000      199.000      44.8840      2212.24      7047.68      21586.2      25878.9      61967.6      96848.0      123448.      7.00000
      817.000      592.000      62.6659      2424.68      7580.21      23549.4      28214.6      67230.1      100729.      123460.      7.00000
      844.000      950.000      85.7026      2503.71      8737.15      27412.5      32964.1      72264.3      104431.      123464.      7.00000
      109.000      497.000      55.8369      1594.67      5226.90      16787.2      20299.9      53428.3      90010.7      123456.      7.00000
      383.000      660.000      68.0962      1506.34      7038.73      22056.3      26213.1      62472.4      95930.7      123458.      7.00000
      542.000      622.000      67.8427      1978.68      6604.38      20829.2      23127.6      61030.2      94840.6      123456.      7.00000
      531.000      270.000      53.2039      2304.23      7339.46      21868.2      25181.1      61277.2      94791.0      123458.      7.00000
      813.000      953.000      80.4580      2328.53      7744.77      23966.0      28504.7      66030.6      98381.1      123456.      7.00000
      771.000      412.000      49.1435      1708.90      5544.51      17311.3      20868.5      53633.9      88497.2      123456.      7.00000
      496.000      951.000      88.7395      2127.87      7086.97      21842.2      26060.8      61091.1      92864.3      123460.      7.00000
      277.000      703.000      76.1541      1653.72      5464.86      17587.7      21221.5      54455.9      87763.2      123451.      7.00000
      92.0000      413.000      66.6426      1854.18      5865.05      18295.2      21532.3      56468.6      89008.7      123454.      7.00000
      963.000      850.000      65.9343      1507.32      4960.57      15994.0      19230.4      50816.6      84937.4      123451.      7.00000
      242.000      194.000      39.9872      2068.30      6543.58      19789.2      23321.9      57308.4      89276.1      123454.      7.00000
      307.000      107.000      33.8582      2071.42      6481.99      19590.5      23271.6      55839.8      87540.6      123446.      7.00000
      580.000      531.000      58.2223      2021.28      6558.79      20098.0      23954.9      57669.0      88671.4      123455.      7.00000
      745.000      319.000      54.4035      2009.75      6053.66      19145.7      23542.0      55298.5      85981.5      123469.      7.00000
      232.000      45.0000      38.6998      1942.47      6125.28      18358.8      21818.2      52776.9      83552.4      123460.      7.00000
      691.000      97.0000      21.5769      1757.02      5701.39      17562.3      20217.3      52018.4      82632.8      123456.      7.00000
      62.0000      48.0000      8.23815      60.4631      110.106      186.085      167.672      250.034      44952.0      123460.      7.00000
      981.000      23.0000      18.2073      2228.15      6995.31      20612.0      24420.0      56710.6      85903.5      123432.      7.00000
      708.000      520.000      60.7087      1566.83      5047.88      15885.8      23724.7      49268.8      81758.9      123455.      7.00000
      393.000      351.000      28.7226      73.9293      116.716      231.003      16702.1      330.634      339.538      409.544     -1.00000
      814.000      545.000      50.4016      1541.75      5072.46      16000.2      11942.7      48990.9      79236.9      123462.      7.00000
      784.000      52.0000      19.4530      2152.01      6745.73      19993.3      23467.0      54186.2      82060.9      123458.      7.00000
      634.000      10.0000      26.9606      1725.19      5354.05      16213.2      19521.6      48107.8      77514.5      123460.      7.00000
      417.000      152.000      37.6235      1955.28      6220.52      18491.1      21909.4      52142.1      80466.8      123458.      7.00000
      757.000      317.000      44.0160      1895.96      6086.73      18306.8      21758.7      51762.3      79727.3      123461.      7.00000
      719.000      958.000      82.6607      1648.49      5442.18      17551.0      21159.8      51305.5      79547.1      123455.      7.00000
      798.000      803.000      75.9669      1462.78      4949.45      15630.3      18884.8      47122.6      76344.1      123455.      7.00000
      977.000      227.000      43.5087      1266.64      4119.27      20070.6      15627.8      42405.5      72630.1      123457.      7.00000
      87.0000      156.000      30.5330      1549.09      4842.20      14983.8      17766.8      45072.3      74280.0      123463.      7.00000
      303.000      118.000      28.3272      1676.02      5306.80      15955.0      21854.8      46598.0      74652.2      123464.      7.00000
      617.000      756.000      68.3357      1383.46      4540.52      14487.1      17299.6      44642.3      73076.0      123459.      7.00000
      96.0000      767.000      83.7258      1344.63      4206.23      13198.2      19253.4      45368.4      73395.4      123458.      7.00000
      533.000      367.000      37.7883      1372.07      4295.96      13655.5      16446.6      42257.5      70578.5      123455.      7.00000
      774.000      911.000      69.5019      1521.49      5053.66      16041.2      19171.2      46914.1      73935.4      123441.      7.00000
      974.000      1018.00      65.3600      1140.23      3863.18      13015.9      15780.7      41574.2      69837.5      123455.      7.00000
      181.000      823.000      59.9587      1102.51      3633.06      11823.2      10743.1      39062.6      67430.2      123463.      7.00000
      624.000      893.000      72.9283      1386.54      4547.57      14715.3      17540.1      44159.5      70979.8      123443.      7.00000
      949.000      926.000      71.4987      1153.89      3761.44      12055.8      14486.3      38571.6      65893.6      123460.      7.00000
      660.000      679.000      60.8904      1243.62      3997.97      12555.5      17560.9      38926.0      64781.4      123445.      7.00000
      365.000      275.000      40.8949      1111.55      3698.12      11877.6      14504.4      37296.2      63269.7      123238.      7.00000
      685.000      522.000      62.6912      1044.27      3368.50      10914.2      13089.3      35509.8      61301.3      123453.      7.00000
      380.000      2.00000      18.0258      1078.56      3416.33      10440.0      12534.7      33449.5      58702.1      123458.      7.00000
      380.000      1.00000      17.1113      1130.05      3526.21      10650.0      12776.7      33826.5      58593.9      122837.      7.00000
      449.000      264.000      29.5508      1457.24      4531.18      13813.9      16503.9      40322.0      62872.2      123443.      7.00000
      191.000      582.000      56.1883      1388.42      4676.22      14655.4      17604.7      43475.8      69670.6      120656.     -1.00000
      1019.00      890.000      81.1897      2196.87      7412.23      22443.9      26629.9      58459.4      82948.7      120749.     -1.00000
      665.000      677.000      65.8291      1384.66      4482.80      14069.9      16790.1      41952.7      68014.4      120393.     -1.00000
      173.000      726.000      66.6402      1412.66      4748.94      14769.4      17710.4      44085.5      70326.4      120054.     -1.00000
      500.000      704.000      68.0662      1135.50      3781.97      12194.1      14622.4      37881.6      63329.5      118806.     -1.00000
      828.000      434.000      47.2721      949.045      2992.11      9870.16      9686.85      31576.2      55875.8      117234.     -1.00000
      378.000      748.000      67.2177      632.364      1924.18      6427.97      7263.24      22505.2      40890.4      117067.     -1.00000
      604.000      65.0000      19.2782      1366.29      4042.24      12655.9      14786.7      38083.2      62891.3      115849.     -1.00000
      59.0000      749.000      71.4949      903.266      3000.76      9827.44      12166.7      31329.4      54613.0      116552.     -1.00000
      795.000      80.0000      25.0763      1247.18      3883.05      12120.9      19585.1      37403.5      62319.7      115232.     -1.00000
      210.000      160.000      38.7616      1773.10      5451.00      16089.0      23005.2      45436.7      69785.5      115162.     -1.00000
      857.000      398.000      52.8044      2270.12      7120.24      20865.0      25124.2      53980.0      77891.3      115421.     -1.00000
      988.000      967.000      62.7397      1420.76      4880.70      15505.8      17619.8      45394.2      70261.8      115880.     -1.00000
      466.000      982.000      78.3202      1171.65      4043.53      13156.8      9625.54      40259.1      65169.2      114871.     -1.00000
      329.000      799.000      74.9226      945.857      2910.11      9512.17      11683.4      31330.6      54750.0      114455.     -1.00000
      802.000      40.0000      29.4373      1406.33      4554.85      13743.6      16228.7      40296.0      64252.8      110346.     -1.00000
      684.000      91.0000      12.8349      1302.73      4183.03      12766.4      15229.1      37866.8      61601.9      109215.     -1.00000
      0.00000      233.000     -270.726      945.854      3673.16      11837.5      14075.6      35911.4      58835.4      109360.     -1.00000
      117.000      577.000      66.4277      972.097      3002.58      9722.99      11630.4      31609.6      54316.8      109178.     -1.00000
      985.000      997.000      60.4022      1109.68      3573.74      11628.1      13694.2      35479.8      58739.4      108782.     -1.00000
      566.000      332.000      32.7784      1205.24      3779.12      11897.1      14165.1      35783.1      58875.6      107875.     -1.00000
      173.000      263.000      41.0833      903.256      2940.35      8861.79      10381.8      27075.2      44309.7      106825.     -1.00000
      290.000      246.000      41.9098      1401.96      4302.75      13208.3      15704.1      39021.7      62443.1      105548.     -1.00000
      584.000      74.0000      16.2731      1210.82      3889.04      11850.0      17196.1      35413.7      57083.7      104757.     -1.00000
      530.000      183.000      32.3300      1451.70      4548.82      13638.8      16197.2      39264.6      61659.7      104867.     -1.00000
      996.000      931.000      63.6302      851.424      2919.27      9385.11      11044.8      30235.9      52270.8      105297.     -1.00000
      845.000      863.000      73.8458      921.858      2861.90      9327.34      11369.7      30745.4      52690.1      104578.     -1.00000
      793.000      30.0000      15.9790      909.816      2923.26      9045.91      10728.1      28641.3      49770.0      103642.     -1.00000
      729.000      778.000      65.5738      1210.54      3858.58      12294.2      15567.8      37490.9      59836.8      103802.     -1.00000
      561.000      1015.00      81.6927      874.038      2902.99      9453.84      11477.5      30896.9      52057.5      101007.     -1.00000
      747.000      167.000      21.1960      1092.92      3464.79      10596.3      12635.5      32271.2      53577.1      99910.1     -1.00000
      755.000      324.000      57.2500      968.617      3095.73      9566.74      11600.9      30246.9      51005.0      99865.7     -1.00000
      898.000      150.000      25.8496      1379.32      4375.50      13114.1      13766.8      37369.3      58774.3      99297.0     -1.00000
      387.000      799.000      65.4812      1126.99      3533.75      11159.7      22994.1      33627.7      55270.9      99924.3     -1.00000
      855.000      422.000      45.1143      1464.41      3169.84      9959.87      12299.7      32940.0      54063.6      98613.0     -1.00000
      523.000      626.000      67.0009      1085.58      3641.39      11228.5      13480.9      33909.1      55118.7      98295.0     -1.00000
      397.000      447.000      46.3603      1263.45      3989.78      12327.6      14643.4      36644.0      49207.1      105369.     -1.00000
      230.000      761.000      61.8733      1127.64      3492.98      11380.7      14018.0      34706.8      55850.9      97852.7     -1.00000
      939.000      375.000      33.2156      867.639      2828.88      9088.76      10921.2      28861.0      49506.9      97006.2     -1.00000
