PDS_VERSION_ID         = PDS3
RECORD_TYPE            = STREAM
OBJECT                 = TEXT
  PUBLICATION_DATE     = 2017-12-05
  INTERCHANGE_FORMAT   = ASCII
  NOTE                 = "NAC hot pixel file for epoch 2015.7."
END_OBJECT             = TEXT
END

NAC hot pixel list. Lines 1 and 2 are column headings giving exposure time 
(sec) and gain state (e-/DN), respectively, of source dark images. Starting 
on line 3, first two columns indicate x and y value of hot pixel; columns 3 
through N-1 give median electron counts for each exposure bin, and last (Nth) 
column contains either the index of the exposure bin where saturation first 
occurs, or -1 if no saturation.

\begindata
      0.00000      0.00000      0.00000      10.0000      32.0000      100.000      320.000      560.000      1200.00
      0.00000      0.00000      12.8410      12.8410      30.2700      30.2700      30.2700      30.2700      30.2700
      967.000      336.000      301.790      29151.5      79947.9      125469.      125460.      125479.      125466.      3.00000
      804.000      654.000      340.425      26373.0      74694.4      125470.      125473.      125487.      125487.      3.00000
      964.000      361.000      268.645      25747.0      71030.5      125479.      125494.      125471.      125484.      3.00000
      481.000      99.0000      202.430      19744.6      58405.4      125473.      125465.      125481.      125463.      3.00000
      50.0000      614.000      240.394      20266.8      57098.6      124097.      125474.      125477.      125476.      3.00000
      190.000      864.000      253.623      15237.3      47005.2      118348.      125467.      125472.      125467.      4.00000
      996.000      931.000      174.512      9991.46      33746.3      95936.5      125484.      125487.      125474.      4.00000
      98.0000      87.0000      101.373      10939.4      33451.5      89887.0      125470.      125488.      125502.      4.00000
      845.000      326.000      118.377      10688.6      34627.1      88885.5      125478.      125481.      125482.      4.00000
      975.000      866.000      170.888      8458.85      28394.1      83014.7      125467.      125466.      125463.      4.00000
      397.000      137.000      97.0977      8401.65      26766.7      78240.3      125470.      125477.      125479.      4.00000
      297.000      396.000      133.618      10723.4      32539.7      83692.5      125494.      125465.      125465.      4.00000
      343.000      526.000      160.203      9998.65      31015.2      80563.3      125485.      125484.      125483.      4.00000
      158.000      65.0000      121.719      10507.2      30786.8      75191.5      125471.      125474.      125458.      4.00000
      573.000      212.000      85.2209      8390.35      26529.7      71126.2      125462.      125474.      125478.      4.00000
      37.0000      647.000      148.432      7902.38      24956.8      69800.7      125492.      125486.      125490.      4.00000
      213.000      482.000      94.6343      6608.68      22049.8      65244.0      125484.      125465.      125481.      4.00000
      381.000      361.000      108.845      7544.84      24011.4      66637.2      125494.      125471.      125484.      4.00000
      898.000      949.000      185.241      4696.97      16628.9      57316.9      125476.      125464.      125472.      4.00000
      967.000      351.000      112.366      5580.18      18436.4      58145.2      125485.      125463.      125460.      4.00000
      546.000      747.000      188.260      5598.91      19103.8      58497.7      125465.      125465.      125462.      4.00000
      919.000      767.000      151.193      5299.06      19292.1      58515.7      125490.      125479.      125479.      4.00000
      345.000      147.000      87.7583      6556.50      20846.2      59760.4      125477.      125463.      125461.      4.00000
      599.000      452.000      118.145      6510.15      20740.2      58952.2      125470.      125484.      125488.      4.00000
      859.000      357.000      86.0451      6453.25      20800.9      58695.4      125483.      125465.      125481.      4.00000
      268.000      74.0000      74.1477      5939.32      18298.1      52185.4      125480.      125467.      125467.      4.00000
      345.000      213.000      49.1379      3052.22      9731.53      28264.8      115212.      125467.      125478.      5.00000
      967.000      337.000      83.0533      289.599      541.735      1015.08      88469.4      125475.      125463.      5.00000
      242.000      621.000      134.760      4010.41      13952.3      43892.0      122708.      125465.      125454.      5.00000
      3.00000      884.000      26.1842      3462.69      12916.3      41769.2      116853.      125484.      125488.      5.00000
      960.000      153.000      45.4674      4156.33      13433.1      40995.3      112062.      125467.      125463.      5.00000
      149.000      356.000      76.4529      5147.04      16872.1      49116.4      118608.      125462.      125477.      5.00000
      142.000      23.0000      55.7963      4860.72      15293.6      44484.0      114003.      125465.      125446.      5.00000
      117.000      230.000      76.5686      5402.33      16895.1      48314.4      116716.      125472.      125465.      5.00000
      408.000      377.000      76.6284      5064.19      12097.4      37479.7      108312.      125500.      125472.      5.00000
      151.000      977.000      207.647      5714.92      19121.7      54706.8      121364.      125489.      125460.      5.00000
      804.000      655.000      174.405      443.636      826.022      1504.76      77667.4      125491.      125483.      5.00000
      842.000      1000.00      191.802      4923.15      16579.4      48831.4      114753.      125463.      125483.      5.00000
      56.0000      789.000      165.553      4644.88      15490.2      45155.4      111559.      125470.      125460.      5.00000
      92.0000      413.000      100.316      6689.00      20963.1      55936.2      119304.      125470.      125481.      5.00000
      689.000      807.000      150.053      2690.97      9485.21      31701.0      99444.7      125482.      125492.      5.00000
      544.000      256.000      47.2374      3050.13      9875.63      31314.3      98691.1      125476.      125471.      5.00000
      649.000      346.000      61.8204      3016.58      9968.50      31927.7      99189.6      125478.      125452.      5.00000
      899.000      52.0000      67.5188      6836.45      20640.3      53679.7      114360.      125472.      125483.      5.00000
      910.000      336.000      57.7500      3049.49      10187.5      31920.3      95927.1      125479.      125466.      5.00000
      25.0000      684.000      136.043      3619.33      12403.9      37697.5      100402.      125472.      125475.      5.00000
      1008.00      692.000      112.876      3059.31      10653.9      33117.8      94937.1      125477.      125478.      5.00000
      865.000      462.000      92.4840      4985.43      15938.1      44510.0      103209.      125479.      125464.      5.00000
      462.000      84.0000      56.0539      3731.57      11907.1      35362.3      94367.1      125486.      125490.      5.00000
      711.000      498.000      97.7090      4963.54      16078.5      44851.7      102030.      125485.      125459.      5.00000
      578.000      312.000      67.0142      4493.40      14353.6      40886.9      97837.5      125467.      125464.      5.00000
      103.000      483.000      93.0585      4211.09      13488.5      38778.0      96167.5      125467.      125488.      5.00000
      887.000      625.000      117.953      3178.31      10866.8      34071.4      92325.1      125463.      125450.      5.00000
      984.000      295.000      54.3216      3391.18      11264.6      34799.8      92538.2      125485.      125481.      5.00000
      424.000      219.000      47.7390      3255.20      11179.8      32340.4      89934.8      125486.      125468.      5.00000
      843.000      421.000      54.1822      2690.09      9325.81      30008.4      86668.1      125482.      125454.      5.00000
      523.000      169.000      48.8916      3645.69      11577.5      33895.1      89074.2      125478.      125488.      5.00000
      524.000      697.000      137.006      2623.88      9340.66      30265.6      86427.6      125478.      125469.      5.00000
      123.000      79.0000      48.7818      3544.20      11231.2      32921.0      87936.2      125472.      125473.      5.00000
      297.000      252.000      55.7616      2906.84      9425.37      28622.2      84740.6      125470.      125482.      5.00000
      647.000      265.000      55.0284      3675.76      11892.5      34827.0      88782.8      125462.      125445.      5.00000
      1000.00      337.000      45.0695      2931.99      9743.49      29831.2      83789.8      125475.      125463.      5.00000
      549.000      905.000      163.577      2423.82      9084.71      29317.8      83728.5      125465.      125453.      5.00000
      581.000      381.000      50.2656      2188.64      7677.74      24690.6      79245.2      125487.      125461.      5.00000
      874.000      134.000      37.5014      2386.61      7885.51      24872.6      78890.1      125475.      125478.      5.00000
      634.000      10.0000      35.8670      3461.99      10764.4      31620.5      84010.6      124300.      125488.      5.00000
      487.000      880.000      164.192      2691.40      9365.61      29851.9      82699.4      123205.      125493.      5.00000
      120.000      68.0000      37.6611      3130.15      9815.88      29384.0      81203.7      122876.      125457.      5.00000
      515.000      513.000      86.6911      2667.18      8537.45      26665.1      79000.4      123583.      125473.      5.00000
      895.000      208.000      23.7846      2764.29      8913.71      27288.2      79727.5      125481.      125476.      5.00000
      481.000      100.000      42.6364      116.132      222.093      430.559      53196.4      125483.      125461.      5.00000
      814.000      601.000      96.6522      1899.15      6396.62      20854.0      68310.9      118703.      125483.      6.00000
      898.000      948.000      139.346      94.4247      117.156      216.189      294.278      68952.8      125470.      6.00000
      732.000      583.000      114.390      2073.88      7137.01      23134.9      71587.0      116750.      125461.      6.00000
      776.000      573.000      101.800      2572.84      8592.96      27552.1      79540.2      122215.      125482.      6.00000
      434.000      761.000      143.596      1577.30      5502.05      18622.4      61785.1      108541.      125473.      6.00000
      47.0000      360.000      54.5826      2503.69      8102.59      25376.7      74337.7      117038.      125487.      6.00000
      3.00000      473.000     -79.6567      1362.76      5422.88      18592.8      62010.3      108132.      125454.      6.00000
      491.000      588.000      120.402      2855.01      9638.19      29521.3      80748.6      120540.      125458.      6.00000
      268.000      676.000      145.504      2076.35      7314.02      23742.6      71353.5      113629.      125478.      6.00000
      181.000      823.000      143.879      1455.53      5210.22      18029.2      61747.7      106470.      125458.      6.00000
      18.0000      679.000      82.7839      2431.80      8547.93      27337.7      77406.4      117677.      125472.      6.00000
      305.000      696.000      137.162      2452.25      7318.58      22412.3      68255.2      109825.      125463.      6.00000
      147.000      68.0000      24.9998      2228.57      7203.41      21963.8      65335.5      106239.      125457.      6.00000
      362.000      915.000      175.689      2196.69      8301.75      26523.7      75195.5      113832.      125471.      6.00000
      570.000      606.000      108.567      1967.49      7067.88      22645.3      68272.9      108522.      125490.      6.00000
      444.000      692.000      129.157      1978.44      7099.78      22652.2      67870.9      107614.      125478.      6.00000
      964.000      360.000      30.2293      60.9014      132.253      231.577      24801.9      75747.8      125487.      6.00000
      303.000      118.000      25.1101      2659.49      8583.30      25626.8      70689.4      108673.      125466.      6.00000
      328.000      733.000      128.447      1688.43      5843.58      19425.0      61776.7      102370.      125497.      6.00000
      762.000      386.000      37.1053      2167.83      7507.04      23454.2      68008.1      106688.      125461.      6.00000
      391.000      888.000      184.272      3143.38      10610.2      32054.0      80973.8      115457.      125493.      6.00000
      385.000      420.000      52.0796      1802.36      6150.84      19699.5      61558.6      101043.      125459.      6.00000
      139.000      0.00000      19.2551      2309.26      7169.27      21998.6      65058.2      102971.      125481.      6.00000
      956.000      727.000      129.206      1942.30      6793.58      21886.1      65260.8      103349.      125496.      6.00000
      552.000      694.000      128.216      1979.68      6771.45      21869.9      64996.7      102525.      125471.      6.00000
      911.000      250.000      51.3518      2296.40      7503.86      23483.2      66743.6      103189.      125485.      6.00000
      236.000      340.000      53.4930      2769.26      9147.43      27419.0      73451.7      108111.      125460.      6.00000
      681.000      578.000      104.455      2078.36      7291.98      22894.9      66502.3      103189.      125470.      6.00000
      858.000      355.000      41.5603      1896.83      6589.22      21209.5      63690.5      100756.      125474.      6.00000
      774.000      785.000      126.537      2084.51      7411.29      23632.8      67676.1      103650.      125468.      6.00000
      168.000      153.000      53.5406      3126.48      9751.45      28863.1      74616.0      108150.      125463.      6.00000
      157.000      741.000      122.860      1775.20      6187.80      20467.3      62380.8      99532.7      125463.      6.00000
      154.000      715.000      142.145      1634.80      5847.51      19482.7      60746.8      98139.1      125465.      6.00000
      365.000      875.000      156.903      2086.77      7945.83      25733.9      71010.7      105538.      125478.      6.00000
      936.000      998.000      167.633      4772.32      15833.8      45418.0      80713.0      120567.      125479.      6.00000
      967.000      350.000      70.6802      115.431      186.594      248.225      380.182      53643.5      125459.      6.00000
      466.000      770.000      158.118      1824.87      6475.65      23019.6      66001.2      101508.      125481.      6.00000
      973.000      62.0000      15.7246      1892.06      6183.15      19059.3      57711.2      94859.3      125461.      6.00000
      19.0000      1018.00      156.113      1469.19      5410.08      18675.1      59024.1      96098.0      125467.      6.00000
      449.000      264.000      59.9928      3200.79      10472.9      30527.6      76458.5      108047.      125448.      6.00000
      817.000      592.000      112.323      2027.38      7276.85      23121.0      65525.8      99888.2      125470.      6.00000
      758.000      44.0000      21.3411      2207.87      7130.01      21565.4      62172.6      97073.2      125478.      6.00000
      804.000      653.000      97.1147      76.8407      122.627      216.251      34455.3      77066.5      125491.      6.00000
      76.0000      1017.00      170.127      1665.18      6239.01      21365.2      64215.0      98672.4      125470.      6.00000
      847.000      345.000      46.9707      1957.66      6723.80      20952.7      61212.7      95743.9      125453.      6.00000
      719.000      958.000      179.768      1956.44      6945.27      22868.7      64192.2      98223.0      125481.      6.00000
      433.000      740.000      179.228      2020.07      6599.19      21303.9      62532.2      96884.9      125466.      6.00000
      335.000      245.000      40.5037      2412.68      8126.48      24029.8      65630.4      98462.4      125490.      6.00000
      578.000      933.000      188.178      1248.95      4404.18      15154.6      50881.2      87840.0      125473.      6.00000
      671.000      105.000      30.8873      2392.28      7687.51      23356.2      63867.0      96831.4      125452.      6.00000
      433.000      70.0000      30.1250      1680.20      5480.43      17095.4      53042.6      88597.2      125455.      6.00000
      466.000      982.000      210.209      1694.06      6164.25      20731.6      61211.2      94883.6      125455.      6.00000
      813.000      953.000      157.793      1810.23      6847.96      22027.1      63435.2      96332.8      125480.      6.00000
      738.000      875.000      161.037      1848.37      6898.18      22313.7      63643.9      96220.6      125478.      6.00000
      710.000      1012.00      207.011      2071.87      7318.50      22937.2      64397.1      96795.1      125479.      6.00000
      651.000      420.000      59.7814      1575.31      5375.85      17278.1      54905.8      89034.1      125459.      6.00000
      766.000      872.000      152.623      1629.92      5573.65      17964.2      55436.3      89386.5      125468.      6.00000
      996.000      930.000      126.266      99.4082      156.015      262.520      3572.70      51110.1      125475.      6.00000
      86.0000      665.000      121.049      1524.12      5333.14      17570.8      54381.7      87808.8      125464.      6.00000
      566.000      215.000      51.2077      1900.17      6073.58      18921.3      55739.8      88496.2      125473.      6.00000
      580.000      531.000      90.2247      1865.02      6363.69      19878.3      57950.7      89766.4      125486.      6.00000
      190.000      863.000      148.079      92.9208      120.876      212.257      9067.88      54336.0      125463.      6.00000
      277.000      703.000      141.441      1401.14      4966.56      16817.9      53089.2      86132.1      125452.      6.00000
      307.000      107.000      20.9429      1953.28      6440.50      19296.8      55602.7      87585.5      125451.      6.00000
      588.000      243.000      45.2826      1790.29      6006.65      18422.7      54360.1      86420.1      125488.      6.00000
      16.0000      244.000      29.2440      2179.54      7059.47      21877.2      60199.9      90370.5      125490.      6.00000
      345.000      13.0000      16.6167      1815.82      5698.30      17527.1      52017.6      84073.9      125494.      6.00000
      771.000      412.000      60.0330      1437.93      4898.73      15555.8      49265.7      81919.5      125484.      6.00000
      685.000      522.000      83.4414      1193.60      4090.56      13964.7      45302.8      78910.6      125486.      6.00000
      232.000      45.0000      26.3138      1936.20      6080.60      18359.4      53145.1      84342.3      125478.      6.00000
      844.000      950.000      181.204      1857.53      7000.07      22759.7      62169.9      91292.7      125474.      6.00000
      9.00000      306.000      5.54756      2008.59      6699.15      20503.9      57133.7      87304.2      125465.      6.00000
      358.000      246.000      49.4507      1875.84      6124.77      18754.9      54097.7      84896.4      125490.      6.00000
      3.00000      19.0000     -151.277      1623.17      5591.50      17474.1      51776.1      82711.3      125460.      6.00000
