PDS_VERSION_ID         = PDS3
RECORD_TYPE            = STREAM
OBJECT                 = TEXT
  PUBLICATION_DATE     = 2014-02-19
  INTERCHANGE_FORMAT   = ASCII
  NOTE                 = "NAC hot pixel file for epoch 2006.9."
END_OBJECT             = TEXT
END

NAC hot pixel list. Lines 1 and 2 are column headings giving exposure time 
(sec) and gain state (e-/DN), respectively, of source dark images. Starting 
on line 3, first two columns indicate x and y value of hot pixel; columns 3 
through N-1 give median electron counts for each exposure bin, and last (Nth) 
column contains either the index of the exposure bin where saturation first 
occurs, or -1 if no saturation.

\begindata
      0.00000      0.00000      0.00000      10.0000      32.0000      100.000      560.000      1200.00
      0.00000      0.00000      12.8410      12.8410      30.2700      30.2700      30.2700      30.2700
      213.000      482.000      189.614      12990.4      40637.0      110559.      123456.      123459.      4.00000
      98.0000      87.0000      99.0105      8179.26      25626.9      72210.8      123472.      123459.      4.00000
      37.0000      647.000      191.056      8456.93      26091.1      71734.7      123469.      123462.      4.00000
      123.000      79.0000      118.216      9451.43      28406.3      73821.7      123465.      123453.      4.00000
      936.000      998.000      242.973      7716.48      24279.7      64828.3      123473.      123453.      4.00000
      573.000      212.000      83.2694      7758.79      22037.5      60674.1      123456.      123460.      4.00000
      599.000      452.000      122.243      7152.71      21922.4      60478.7      123457.      123462.      4.00000
      549.000      905.000      207.453      5591.33      18602.4      55407.3      123460.      123461.      4.00000
      149.000      356.000      85.0281      5466.47      17486.4      49143.3      123467.      123449.      4.00000
      227.000      664.000      175.900      5151.38      16267.6      46990.9      123456.      123464.      4.00000
      711.000      498.000      127.146      5057.32      15626.7      42977.9      123451.      123447.      4.00000
      578.000      312.000      59.5603      4540.28      13969.3      39036.1      123472.      123461.      4.00000
      444.000      692.000      156.156      3904.64      12651.9      38096.4      123473.      123464.      4.00000
      391.000      888.000      183.861      4219.75      13524.8      38556.6      123462.      123466.      4.00000
      552.000      694.000      148.624      3836.92      12322.1      37007.2      123471.      123457.      4.00000
      617.000      756.000      156.857      3562.63      11668.8      35942.0      123461.      123464.      4.00000
      758.000      44.0000      44.3631      3644.72      11232.8      32654.1      123465.      123465.      4.00000
      18.0000      679.000      120.809      3154.36      10487.4      32021.2      123460.      123464.      4.00000
      689.000      807.000      167.814      2887.83      9597.71      30691.1      123472.      123458.      4.00000
      239.000      141.000      42.6894      3309.37      10403.8      30957.2      123452.      123460.      4.00000
      555.000      944.000      223.884      2525.76      8631.93      27690.0      123461.      123464.      4.00000
      1023.00      496.000      176.150      3143.53      10089.6      29843.0      118579.      123435.      5.00000
      462.000      84.0000      32.9307      2811.50      8905.09      26830.0      116240.      123460.      5.00000
      487.000      880.000      192.745      2956.84      9723.54      29325.5      117835.      123467.      5.00000
      762.000      386.000      68.0750      2638.00      8577.55      26035.0      112312.      123457.      5.00000
      634.000      10.0000      38.4394      3085.77      9344.66      28863.3      112866.      123463.      5.00000
      981.000      23.0000      32.4986      3191.27      9930.22      28977.9      110972.      123457.      5.00000
      305.000      696.000      161.902      2376.97      7798.69      23568.9      108399.      123449.      5.00000
      430.000      51.0000      46.4432      3228.86      10160.3      29429.2      110659.      123459.      5.00000
      147.000      68.0000      35.4631      2542.16      7952.81      23836.8      108903.      123460.      5.00000
      604.000      65.0000      31.0418      2712.24      8478.99      25150.0      106781.      123458.      5.00000
      844.000      950.000      201.886      2792.57      9494.76      29265.5      107956.      123455.      5.00000
      169.000      475.000      90.1288      1892.11      6019.96      18800.6      100734.      123458.      5.00000
      919.000      199.000      34.5121      2567.16      8048.05      24307.6      103664.      123459.      5.00000
      817.000      592.000      126.156      2457.19      7755.37      23442.8      100611.      123473.      5.00000
      109.000      497.000      86.6195      1793.32      5825.34      18205.5      96397.8      123439.      5.00000
      847.000      345.000      63.1405      2220.79      7212.65      22300.1      98194.9      123467.      5.00000
      588.000      243.000      56.2877      2238.77      7247.62      21968.6      96000.9      123457.      5.00000
      691.000      97.0000      28.4814      2196.80      6906.64      21055.6      97152.2      123463.      5.00000
      542.000      622.000      135.643      2031.31      6660.66      21091.1      95456.1      123463.      5.00000
      744.000      647.000      155.091      2007.52      6637.23      20517.7      93375.4      123462.      5.00000
      795.000      80.0000      36.2602      1944.34      6256.84      19198.0      93249.8      123455.      5.00000
      242.000      194.000      55.2526      2072.21      6488.47      19848.5      89216.6      123466.      5.00000
      963.000      850.000      158.990      1555.31      5152.66      16570.1      87575.5      123454.      5.00000
      277.000      703.000      139.511      1654.55      5450.74      17567.1      87724.9      123467.      5.00000
      531.000      270.000      53.3191      2061.10      6576.00      19622.7      86831.5      123458.      5.00000
      307.000      107.000      37.7287      2092.36      6501.56      19677.0      87825.6      123456.      5.00000
      9.00000      306.000      2.87757      2335.36      7590.17      22306.9      86616.1      123455.      5.00000
      530.000      805.000      162.000      1796.98      5849.94      18018.3      83075.1      123459.      5.00000
      232.000      45.0000      31.2687      1931.12      6069.92      18357.6      83519.8      123465.      5.00000
      813.000      953.000      185.436      1896.94      6206.61      19349.1      82459.5      123465.      5.00000
      894.000      642.000      137.539      1603.50      5270.54      16667.0      80388.8      123454.      5.00000
      719.000      958.000      181.092      1740.81      5692.50      18104.2      81263.0      123456.      5.00000
      580.000      531.000      90.0493      1783.97      5676.87      17576.7      80316.8      123462.      5.00000
      417.000      152.000      42.1325      1946.28      6149.31      18477.1      79989.3      123460.      5.00000
      757.000      317.000      26.3374      1919.08      6101.80      18390.3      79821.0      123457.      5.00000
      210.000      160.000      46.0539      2112.87      6648.60      19423.3      78777.8      123459.      5.00000
      202.000      885.000      213.830      1245.11      4239.49      13826.7      75885.0      123452.      5.00000
      798.000      803.000      159.469      1464.67      4992.00      15802.7      76789.1      123461.      5.00000
      624.000      893.000      183.940      1526.70      5039.64      16126.3      76796.8      123464.      5.00000
      87.0000      156.000      40.1404      1645.76      5155.22      15735.6      76999.9      123460.      5.00000
      977.000      227.000      29.0074      1271.64      4135.97      13137.3      74164.6      123457.      5.00000
      173.000      726.000      142.619      1541.73      5165.52      16063.3      74830.8      123462.      5.00000
      774.000      911.000      173.747      1586.67      5179.26      16055.0      73990.2      123457.      5.00000
      675.000      951.000      192.273      1443.08      4703.18      14864.3      73209.1      123458.      5.00000
      329.000      799.000      171.413      1021.54      3196.59      10353.4      58922.5      122431.     -1.00000
      685.000      522.000      82.8981      1012.42      3363.25      10726.0      60027.8      121370.     -1.00000
      100.000      807.000      143.096      994.578      3181.56      10243.2      58353.0      121249.     -1.00000
      191.000      582.000      104.052      1436.75      4715.35      14783.3      69903.5      120877.     -1.00000
      665.000      677.000      117.827      1386.91      4511.23      14131.2      68290.6      120787.     -1.00000
      213.000      483.000      76.4154      207.092      367.990      643.204      42303.6      120396.     -1.00000
      144.000      995.000      218.173      1462.11      4745.11      14788.9      70441.6      120973.     -1.00000
      985.000      997.000      180.362      1306.03      4290.03      13575.7      66939.3      120032.     -1.00000
      380.000      2.00000      18.3580      998.409      3227.21      9999.09      56290.4      118706.     -1.00000
      155.000      102.000      30.7456      1815.37      5671.07      16997.1      72833.7      118477.     -1.00000
      500.000      704.000      144.267      1163.21      3846.80      12345.3      63604.0      119210.     -1.00000
      973.000      430.000      53.7369      1422.40      4597.70      14199.9      67805.7      118472.     -1.00000
      380.000      1.00000      15.6271      1082.95      3418.62      10347.0      56260.4      117881.     -1.00000
      92.0000      413.000      69.3539      1537.81      4960.29      15357.1      69580.3      118152.     -1.00000
      64.0000      477.000      59.4553      1076.46      3350.28      10604.4      57482.3      116473.     -1.00000
      96.0000      767.000      160.844      1343.47      4226.71      13078.3      64478.9      116809.     -1.00000
      1019.00      474.000      62.1363      1299.09      4131.45      12551.2      64250.4      116359.     -1.00000
      857.000      398.000      59.0691      2251.12      7203.38      20963.6      77856.0      115538.     -1.00000
      0.00000      233.000     -271.603      1117.74      4013.09      12690.7      63210.0      115068.     -1.00000
      1020.00      98.0000      13.1451      1484.71      4644.05      14173.2      64851.4      113022.     -1.00000
      988.000      967.000      201.206      1478.73      4749.80      14944.9      68028.1      113285.     -1.00000
      974.000      1018.00      150.777      995.469      3277.51      10863.6      59557.2      113294.     -1.00000
      802.000      40.0000      22.8008      1425.52      4604.30      14017.4      64227.2      110799.     -1.00000
      730.000      65.0000      17.1935      1197.87      3811.90      11905.7      59808.0      110499.     -1.00000
      566.000      332.000      56.4908      1201.02      3870.99      11900.5      59135.5      108194.     -1.00000
      996.000      931.000      147.366      926.167      3124.64      9837.21      54475.2      108359.     -1.00000
      530.000      183.000      32.9010      1485.86      4645.82      13850.3      62756.6      106858.     -1.00000
      290.000      246.000      38.8952      1406.58      4302.58      13250.2      62713.4      106036.     -1.00000
      747.000      167.000      18.8999      1168.57      3707.19      11374.5      57244.1      105806.     -1.00000
      814.000      545.000      105.232      1069.90      3466.45      10909.6      57159.9      104977.     -1.00000
      181.000      823.000      161.025      857.062      2726.70      8633.59      49813.1      105041.     -1.00000
      76.0000      1017.00      186.448      1006.18      3393.24      11091.7      58198.6      104430.     -1.00000
      845.000      863.000      188.536      928.443      2846.39      9278.77      52384.6      103933.     -1.00000
      43.0000      578.000      77.2854      960.463      3056.59      9752.94      52873.1      103411.     -1.00000
      173.000      263.000      30.6420      929.078      2929.29      8893.67      55635.9      102650.     -1.00000
      741.000      807.000      152.297      916.810      2908.25      9259.07      51622.6      102810.     -1.00000
      584.000      74.0000      20.5275      1187.24      3809.29      11566.2      56684.6      101387.     -1.00000
      443.000      545.000      102.599      892.880      2903.99      9206.99      50577.2      101254.     -1.00000
      771.000      412.000      41.4961      1159.85      3575.76      11329.8      55660.1      100472.     -1.00000
      793.000      30.0000      18.6540      881.685      2807.89      8759.21      47911.2      99903.4     -1.00000
      755.000      324.000      48.5112      994.051      3098.19      9659.67      51091.3      100113.     -1.00000
      1.00000      244.000     -237.703      788.017      2994.25      9582.42      50922.1      98947.2     -1.00000
      523.000      626.000      135.458      1128.18      3663.02      11400.0      55574.2      98712.8     -1.00000
      185.000      740.000      153.979      801.185      2543.05      8462.33      47924.3      98749.2     -1.00000
      303.000      118.000      31.1126      1174.77      3673.02      11271.8      53955.2      97143.5     -1.00000
      561.000      1015.00      207.581      840.258      2742.69      9203.28      49928.3      97338.7     -1.00000
      672.000      486.000      78.8425      834.105      2725.65      8707.96      48103.5      96462.2     -1.00000
      726.000      603.000      107.765      1210.33      3688.58      11456.0      54359.5      94749.6     -1.00000
      777.000      92.0000      20.6717      1188.76      3793.93      11637.2      54353.4      94237.3     -1.00000
      325.000      995.000      192.491      798.750      2657.93      8863.72      48152.4      94093.8     -1.00000
      476.000      340.000      30.9866      1055.01      3345.17      10374.6      50423.1      91472.1     -1.00000
      62.0000      49.0000      33.8056      1148.90      3474.63      10577.3      50581.0      90863.5     -1.00000
      985.000      56.0000      19.6154      902.742      2846.28      8667.29      45652.1      89773.1     -1.00000
      453.000      511.000      75.3539      853.596      2641.49      8432.96      45355.0      88283.8     -1.00000
      424.000      78.0000      16.8033      932.020      2981.79      9067.95      46381.5      87823.1     -1.00000
      831.000      59.0000      18.3990      908.923      2863.52      8787.63      45755.0      87749.0     -1.00000
      576.000      320.000      45.2227      1076.79      3273.68      10076.6      49079.7      87944.5     -1.00000
      987.000      627.000      114.424      888.901      2775.19      8803.81      46187.5      88199.2     -1.00000
      708.000      520.000      86.8270      912.554      2787.07      8815.76      46261.1      87353.0     -1.00000
      213.000      481.000      61.6664      88.6195      134.788      239.633      27495.8      86823.5     -1.00000
      941.000      993.000      179.220      720.865      2230.92      7244.48      41906.1      87032.6     -1.00000
      784.000      52.0000      24.7190      997.902      3131.13      9462.39      46682.5      86144.1     -1.00000
      230.000      761.000      163.477      988.111      3070.95      9785.28      48062.0      86445.2     -1.00000
      771.000      492.000      87.3685      928.192      2953.13      9172.61      46645.8      85992.5     -1.00000
      466.000      294.000      60.4272      907.644      2884.52      8765.84      44906.0      85509.0     -1.00000
      705.000      164.000      22.3161      877.042      2764.87      8502.63      44208.4      85212.0     -1.00000
      205.000      308.000      43.7782      815.163      2614.12      8223.30      43885.5      85341.7     -1.00000
      641.000      294.000      49.4111      828.295      2979.07      7825.29      42005.4      84961.4     -1.00000
      501.000      448.000      80.6838      938.844      2868.68      9170.18      46245.2      85030.6     -1.00000
      460.000      592.000      87.6328      820.319      2589.63      8071.43      43020.6      85003.4     -1.00000
      312.000      158.000      37.5435      868.144      2757.97      8616.13      44767.1      84429.8     -1.00000
      592.000      399.000      48.8513      732.933      2381.48      7222.48      40202.9      84251.1     -1.00000
      533.000      367.000      50.2099      917.129      2706.98      8363.08      43721.2      83932.2     -1.00000
      587.000      104.000      36.7852      869.550      2813.55      8748.61      44314.1      83102.9     -1.00000
      704.000      185.000      18.8453      751.383      2443.57      7638.20      40910.6      82733.2     -1.00000
      255.000      8.00000      14.0354      786.232      2462.36      7586.73      40287.7      81788.7     -1.00000
      855.000      422.000      52.5231      775.869      2598.48      8390.43      44592.9      82013.2     -1.00000
      767.000      786.000      160.017      784.541      2421.99      7519.89      40708.7      81394.5     -1.00000
      44.0000      957.000      182.930      880.729      2715.17      8702.56      42090.5      81533.5     -1.00000
      583.000      974.000      186.052      786.162      2430.07      7855.51      41945.6      81038.7     -1.00000
      144.000      588.000      114.935      855.357      2657.82      8233.74      42574.1      80560.8     -1.00000
      898.000      710.000      125.283      695.709      2198.16      6973.19      39458.3      80526.1     -1.00000
      247.000      466.000      48.2615      733.311      2272.99      7055.17      38448.9      79798.0     -1.00000
      488.000      921.000      160.557      814.448      2607.82      8242.90      42684.3      80061.6     -1.00000
      460.000      705.000      131.886      765.732      2382.37      7409.31      40034.0      79764.9     -1.00000
      527.000      84.0000      20.0287      1002.08      3160.31      9467.90      44341.3      79227.8     -1.00000
      760.000      486.000      82.5754      796.018      2490.07      7997.18      42515.5      79349.5     -1.00000
      207.000      732.000      138.372      818.764      2553.36      8042.16      41833.6      79469.2     -1.00000
      780.000      905.000      160.370      913.173      2714.41      8864.40      35234.8      79075.8     -1.00000
      324.000      402.000      43.2021      881.810      2681.55      8193.27      41678.4      78504.8     -1.00000
      326.000      567.000      95.5142      874.855      2711.28      8380.90      40699.7      78619.6     -1.00000
      830.000      978.000      201.017      916.559      2806.76      8889.48      44451.2      78910.2     -1.00000
      559.000      974.000      173.211      1053.66      3331.78      10430.0      47196.1      78689.7     -1.00000
      267.000      34.0000      14.8074      793.479      2568.04      7728.80      39501.7      76794.8     -1.00000
      727.000      344.000      38.5287      412.109      1265.01      3840.35      42011.2      76677.7     -1.00000
      331.000      674.000      122.086      771.697      2424.74      7499.23      39783.8      76899.5     -1.00000
