PDS_VERSION_ID         = PDS3
RECORD_TYPE            = STREAM
OBJECT                 = TEXT
  PUBLICATION_DATE     = 2014-02-19
  INTERCHANGE_FORMAT   = ASCII
  NOTE                 = "NAC hot pixel file for epoch 2008.5."
END_OBJECT             = TEXT
END

NAC hot pixel list. Lines 1 and 2 are column headings giving exposure time 
(sec) and gain state (e-/DN), respectively, of source dark images. Starting 
on line 3, first two columns indicate x and y value of hot pixel; columns 3 
through N-1 give median electron counts for each exposure bin, and last (Nth) 
column contains either the index of the exposure bin where saturation first 
occurs, or -1 if no saturation.

\begindata
      0.00000      0.00000      0.00000      10.0000      32.0000      100.000      320.000      560.000      1200.00
      0.00000      0.00000      12.8410      12.8410      30.2700      30.2700      30.2700      30.2700      30.2700
      213.000      482.000      162.788      11252.6      36367.4      99957.9      123454.      123432.      123434.      4.00000
      62.0000      49.0000      134.766      11527.9      35000.5      95418.9      123436.      123443.      123430.      4.00000
      738.000      875.000      305.758      14372.5      42367.3      96914.2      123449.      123427.      123439.      4.00000
      430.000      51.0000      124.043      9436.35      30860.7      79398.5      123441.      123436.      123430.      4.00000
      98.0000      87.0000      95.6084      8145.68      25335.6      71934.0      123440.      123438.      123422.      4.00000
      573.000      212.000      95.9898      9872.83      28561.1      74767.2      123445.      123430.      123440.      4.00000
      123.000      79.0000      112.539      9473.79      28558.4      73812.2      123433.      123444.      123422.      4.00000
      37.0000      647.000      170.105      8115.10      25321.1      69719.2      123429.      123450.      123429.      4.00000
      466.000      982.000      230.372      6659.61      22482.2      65371.4      123454.      123429.      123439.      4.00000
      599.000      452.000      119.548      7150.16      21885.4      61549.6      123451.      123433.      123447.      4.00000
      1023.00      24.0000      66.3972      5901.63      18730.7      55845.9      123414.      123379.      123360.      4.00000
      242.000      621.000      170.643      3999.09      13594.1      42444.6      119341.      123437.      123435.      5.00000
      531.000      500.000      129.333      5034.51      15972.3      47562.3      121546.      123450.      123439.      5.00000
      936.000      998.000      195.611      6320.73      19915.8      55229.7      122281.      123447.      123426.      5.00000
      149.000      356.000      69.0600      5167.43      16461.5      47084.7      113231.      123432.      123446.      5.00000
      117.000      230.000      75.9546      5241.00      16222.8      46162.7      111527.      123442.      123431.      5.00000
      544.000      256.000      48.9399      3205.97      10063.2      31336.9      97883.5      123450.      123436.      5.00000
      843.000      421.000      82.9343      3576.58      11779.3      36238.7      100783.      123437.      123446.      5.00000
      874.000      134.000      39.5552      3048.22      9837.45      30470.8      94967.6      123431.      123443.      5.00000
      549.000      905.000      212.487      3783.34      12987.3      39353.0      102177.      123441.      123434.      5.00000
      444.000      692.000      177.412      3827.68      12401.2      37979.1      100908.      123435.      123427.      5.00000
      910.000      336.000      64.2336      3291.69      10643.9      32729.5      96534.4      123446.      123429.      5.00000
      689.000      807.000      159.302      2855.16      9467.02      30048.4      93236.8      123433.      123447.      5.00000
      18.0000      679.000      123.388      3503.54      11761.0      35393.5      96295.4      123453.      123435.      5.00000
      391.000      888.000      184.654      4544.09      14300.8      40711.0      95769.3      123438.      123449.      5.00000
      202.000      885.000      197.809      2371.56      8230.77      26681.1      84298.7      123426.      123447.      5.00000
      711.000      498.000      108.529      4976.15      15361.5      42495.7      96362.6      123445.      123446.      5.00000
      3.00000      19.0000     -129.308      3143.01      10313.7      31045.9      85610.5      123431.      123423.      5.00000
      806.000      201.000      59.6881      3271.81      10324.7      31129.5      85461.1      123430.      123428.      5.00000
      578.000      312.000      62.1709      4834.27      15014.9      41588.4      93050.5      123430.      123443.      5.00000
      239.000      141.000      42.1329      3376.22      10651.9      31351.2      83936.0      123435.      123453.      5.00000
      378.000      749.000      157.890      2242.37      7548.67      23813.7      75302.7      123433.      123442.      5.00000
      307.000      403.000      55.7894      2507.66      8126.37      25059.4      74070.2      118086.      123426.      6.00000
      305.000      696.000      120.292      2359.12      7887.37      22616.0      70510.1      115008.      123435.      6.00000
      462.000      84.0000      40.7991      2850.23      8970.56      27264.0      77242.0      118259.      123422.      6.00000
      762.000      386.000      66.3051      2682.27      8593.56      26212.5      73723.5      112999.      123444.      6.00000
      147.000      68.0000      32.4487      2511.66      7970.16      23782.2      68530.4      108488.      123448.      6.00000
      744.000      647.000      152.745      2657.40      8722.67      26510.2      74609.4      113230.      123429.      6.00000
      487.000      880.000      180.289      2603.64      9038.49      27962.2      76784.5      114567.      123448.      6.00000
      681.000      578.000      114.905      2006.22      6753.23      21051.0      64264.9      104468.      123430.      6.00000
      588.000      243.000      48.9094      2346.12      7588.35      23013.6      67203.4      105667.      123444.      6.00000
      956.000      727.000      122.064      2272.06      7535.48      23579.0      68412.3      106527.      123434.      6.00000
      758.000      44.0000      29.8913      2535.05      8028.93      24047.6      67704.9      104757.      123439.      6.00000
      919.000      199.000      31.2585      2468.85      7792.47      23566.7      66514.4      102745.      123427.      6.00000
      894.000      642.000      128.425      2258.16      7503.17      23859.4      69054.7      104811.      123435.      6.00000
      790.000      879.000      168.296      1853.15      6481.31      21304.5      65087.5      101837.      123449.      6.00000
      708.000      520.000      102.448      1854.21      6089.28      19086.3      58454.9      95476.0      123441.      6.00000
      847.000      345.000      47.2536      2228.37      7189.83      22214.2      63466.5      98265.2      123436.      6.00000
      817.000      592.000      129.432      2248.89      7305.50      23758.8      67423.0      100839.      123437.      6.00000
      844.000      950.000      200.632      2488.70      8768.19      28457.0      72379.7      104439.      123444.      6.00000
      771.000      412.000      50.2892      1797.35      5790.60      18117.4      56103.1      91914.9      123437.      6.00000
      409.000      469.000      93.4855      2596.18      8336.41      24818.0      67560.3      100179.      123425.      6.00000
      813.000      953.000      203.106      2268.14      7646.52      23723.2      65318.4      97953.3      123448.      6.00000
      542.000      622.000      115.803      1921.04      6528.48      20705.6      60317.0      93928.5      123436.      6.00000
      18.0000      441.000      53.4519      1653.65      5415.12      17122.1      52602.6      87815.4      123427.      6.00000
      19.0000      1018.00      160.935      1594.11      5509.27      17775.2      54891.9      89622.1      123443.      6.00000
      109.000      497.000      91.7814      1597.27      5079.48      16757.8      53079.5      88030.2      123449.      6.00000
      62.0000      48.0000      20.3611      63.9890      109.294      187.610      572.211      49186.4      123430.      6.00000
      496.000      951.000      177.573      1153.33      3730.95      21840.0      61253.1      93245.3      123446.      6.00000
      277.000      703.000      128.055      1678.16      5472.72      17587.3      54342.9      87917.9      123442.      6.00000
      242.000      194.000      38.6925      2091.23      6481.47      19836.5      57467.8      89794.5      123432.      6.00000
      505.000      470.000      89.4594      2448.24      7725.86      22862.6      59578.3      91459.4      123419.      6.00000
      387.000      799.000      162.599      1926.25      6151.55      19151.7      55828.4      88130.2      123440.      6.00000
      963.000      850.000      167.680      1472.53      4885.73      15710.0      49743.4      83713.1      123451.      6.00000
      745.000      319.000      46.9330      2042.92      6648.62      20578.3      59040.3      90116.3      123446.      6.00000
      307.000      107.000      36.0328      2033.85      6484.44      19517.2      55716.1      87572.2      123447.      6.00000
      580.000      531.000      104.794      1955.58      6460.45      20158.7      57598.0      88848.4      123448.      6.00000
      531.000      270.000      42.1623      2176.37      6752.86      20115.5      56776.8      88071.5      123431.      6.00000
      169.000      475.000      75.6042      1496.03      4721.21      14724.3      46998.7      80880.4      123414.      6.00000
      845.000      326.000      49.7430      1811.97      5872.28      18072.0      53951.7      84610.5      123431.      6.00000
      232.000      45.0000      27.0977      1912.99      6067.35      18418.6      52751.7      83586.2      123437.      6.00000
      981.000      23.0000      21.1838      2141.13      6855.83      20275.8      56221.4      85631.6      123370.      6.00000
      634.000      10.0000      24.2428      1742.74      5325.86      16400.0      47640.5      77435.2      123436.      6.00000
      417.000      152.000      50.7162      1909.17      6137.51      18369.7      51957.3      80384.8      123422.      6.00000
      784.000      52.0000      14.9021      2165.62      6745.79      20030.7      54396.9      81806.1      123430.      6.00000
      719.000      958.000      195.316      1576.64      5378.90      17345.8      50847.1      79394.1      123444.      6.00000
      757.000      317.000      49.4179      1852.10      6029.50      18336.4      51924.9      79824.6      123448.      6.00000
      798.000      803.000      167.188      1463.12      4925.14      15649.6      47241.5      76315.3      123437.      6.00000
      96.0000      767.000      165.404      1661.11      5317.74      16235.0      48170.2      76961.0      123442.      6.00000
      977.000      227.000      33.2867      1232.30      4063.31      12968.0      42009.4      72132.8      123426.      6.00000
      87.0000      156.000      38.8392      1538.70      4857.04      14924.6      44929.3      74190.4      123426.      6.00000
      303.000      118.000      17.9935      1691.04      5414.58      16379.1      47412.9      75829.1      123420.      6.00000
      617.000      756.000      126.861      1424.79      4549.26      14559.6      45037.9      73672.9      123427.      6.00000
      181.000      823.000      166.600      1115.84      3669.32      11622.6      39606.0      69155.0      123424.      6.00000
      393.000      351.000      47.9366      2030.14      6579.26      19335.8      52283.3      77836.4      123435.      6.00000
      701.000      305.000      33.6821      1587.59      5226.64      16245.0      53021.9      78260.2      123434.      6.00000
      774.000      911.000      158.971      1548.38      5081.22      15973.8      46919.5      74027.4      123412.      6.00000
      974.000      1018.00      196.019      1154.45      3919.74      12954.6      41473.4      69855.8      123443.      6.00000
      0.00000      233.000     -269.804      1174.59      4396.48      13872.4      42301.0      69688.2      123442.      6.00000
      624.000      893.000      190.305      1427.79      4618.05      14463.0      44093.3      70571.7      123433.      6.00000
      949.000      926.000      172.466      1127.07      3666.37      11835.6      37937.3      64384.5      123435.      6.00000
      365.000      275.000      42.6098      1125.26      3687.07      11858.5      37511.4      63618.1      123445.      6.00000
      380.000      1.00000      12.8186      1139.99      3496.57      10783.4      33924.1      58800.7      122838.      6.00000
      380.000      2.00000      8.93395      1049.15      3406.89      10470.2      33457.4      58439.0      123445.      6.00000
      795.000      80.0000      26.1566      1364.86      4347.01      13303.2      40676.0      67311.9      121326.     -1.00000
      685.000      522.000      94.0657      1025.79      3253.50      10720.1      34610.8      60182.2      121870.     -1.00000
      383.000      660.000      140.803      1482.13      4855.66      14705.3      38555.4      70844.7      121986.     -1.00000
      191.000      582.000      114.770      1394.97      4637.53      14669.3      43618.1      69927.5      120672.     -1.00000
      665.000      677.000      105.691      1350.28      4465.00      13932.1      41993.9      67969.7      120533.     -1.00000
      584.000      74.0000      18.0457      1667.07      5429.84      13320.4      44610.6      73301.4      119283.     -1.00000
      173.000      726.000      143.811      1371.06      4707.47      14725.4      43931.3      69832.1      119741.     -1.00000
      985.000      997.000      189.076      1241.21      4110.80      13312.2      40613.4      66244.8      119334.     -1.00000
      500.000      704.000      144.253      1089.48      3709.02      12153.3      37960.4      63429.8      118911.     -1.00000
      92.0000      413.000      50.0148      1441.96      4626.25      14508.1      42598.5      67757.4      117136.     -1.00000
      857.000      398.000      50.1391      1621.74      5316.66      16138.9      46086.0      71081.6      116774.     -1.00000
      604.000      65.0000      26.5196      1270.51      3868.05      12751.2      37620.8      62602.7      116204.     -1.00000
      59.0000      749.000      142.110      894.963      2963.63      9718.36      31524.3      55043.9      116194.     -1.00000
      210.000      160.000      25.8874      1731.80      5381.79      16161.7      45279.0      69720.0      115431.     -1.00000
      329.000      799.000      180.069      968.297      2925.46      9401.91      31145.3      54410.3      114314.     -1.00000
      671.000      412.000      61.0791      1066.06      3433.29      10947.6      34272.8      58128.8      113843.     -1.00000
      378.000      748.000      149.455      605.322      1962.98      6220.33      21893.0      40086.8      112608.     -1.00000
      52.0000      221.000      24.0126      977.436      3110.64      9687.17      31230.7      53735.2      110736.     -1.00000
      802.000      40.0000      21.8603      1452.23      4465.73      13817.9      40167.3      64332.7      110222.     -1.00000
      684.000      91.0000      16.6779      1344.82      4229.06      12812.1      38413.7      61969.2      110026.     -1.00000
      117.000      577.000      109.927      944.211      2992.78      9578.07      31122.9      53976.1      108133.     -1.00000
      566.000      332.000      40.6584      1171.27      3785.56      11854.4      35966.9      58724.5      107751.     -1.00000
      173.000      263.000      34.9878      960.780      3031.73      9526.77      33416.2      56221.3      107380.     -1.00000
      988.000      967.000      166.255      1325.22      4341.11      13784.3      40962.5      64542.4      107903.     -1.00000
      41.0000      854.000      164.314      518.029      1452.17      4611.29      15044.8      50795.9      22242.8     -1.00000
      729.000      778.000      151.224      1256.71      4032.63      12805.6      38892.4      61461.2      107314.     -1.00000
      449.000      264.000      43.5113      1428.96      4550.02      13725.4      40539.0      63040.4      106170.     -1.00000
      290.000      246.000      32.6593      1363.08      4265.17      13245.7      39077.6      62182.2      105585.     -1.00000
      530.000      183.000      33.3843      1470.63      4541.94      13733.7      39401.1      61878.3      105370.     -1.00000
      845.000      863.000      179.760      914.137      2817.17      9272.47      30558.6      52959.1      105062.     -1.00000
      793.000      30.0000      15.4857      892.673      2936.97      9079.05      28770.7      49980.1      103779.     -1.00000
      996.000      931.000      149.924      814.796      2797.19      9035.96      29636.8      51312.7      103545.     -1.00000
      397.000      447.000      62.4468      1179.24      3778.37      11662.9      34944.9      56795.1      102619.     -1.00000
      797.000      311.000      49.0305      1270.12      4166.10      12668.7      38050.5      60375.9      102111.     -1.00000
      561.000      1015.00      205.418      892.457      2893.00      9572.95      30665.3      52454.1      101480.     -1.00000
      855.000      422.000      49.9757      1005.78      3908.93      10773.3      33084.1      57457.9      100410.     -1.00000
      47.0000      948.000      164.086      1275.93      4249.81      13599.6      41392.8      63245.6      100810.     -1.00000
      747.000      167.000      41.2385      1072.02      3362.70      10481.0      32280.0      53412.3      99573.2     -1.00000
      230.000      761.000      132.367      1124.22      3591.05      11578.7      35630.7      57114.4      99967.8     -1.00000
      530.000      805.000      161.645      1030.27      3167.07      10411.5      31771.1      53570.4      99965.2     -1.00000
      755.000      324.000      34.5848      955.512      2991.91      9421.57      29834.0      50784.7      99245.3     -1.00000
      127.000      368.000      53.5757      1099.27      3576.88      11074.5      31468.1      51949.9      98730.5     -1.00000
      828.000      434.000      45.0188      724.234      2433.23      8011.18      26466.3      46396.3      97906.5     -1.00000
      523.000      626.000      124.070      1071.48      3550.37      11159.1      33986.6      54941.7      97814.1     -1.00000
      814.000      545.000      75.1943      992.237      3095.30      9939.89      31012.9      52315.7      96965.1     -1.00000
      939.000      375.000      35.9389      860.681      2775.93      8982.61      28765.2      49362.9      96703.4     -1.00000
      1020.00      98.0000      29.8895      989.531      3310.20      10072.6      31060.9      51469.3      96296.7     -1.00000
      672.000      486.000      66.3043      834.508      2741.45      8606.37      27803.8      48043.7      96471.8     -1.00000
      143.000      412.000      48.2381      974.242      3050.08      9581.65      29631.2      49959.7      96388.9     -1.00000
      586.000      516.000      89.0683      988.239      3135.19      9673.78      30372.5      50181.4      95320.4     -1.00000
      1019.00      474.000      47.6803      866.631      2832.71      8945.42      28562.3      48133.0      94960.6     -1.00000
