PDS_VERSION_ID         = PDS3
RECORD_TYPE            = STREAM
OBJECT                 = TEXT
  PUBLICATION_DATE     = 2017-12-05
  INTERCHANGE_FORMAT   = ASCII
  NOTE                 = "NAC hot pixel file for epoch 2014.3."
END_OBJECT             = TEXT
END

NAC hot pixel list. Lines 1 and 2 are column headings giving exposure time 
(sec) and gain state (e-/DN), respectively, of source dark images. Starting 
on line 3, first two columns indicate x and y value of hot pixel; columns 3 
through N-1 give median electron counts for each exposure bin, and last (Nth) 
column contains either the index of the exposure bin where saturation first 
occurs, or -1 if no saturation.

\begindata
      0.00000      0.00000      0.00000      10.0000      32.0000      100.000      320.000      560.000      1200.00
      0.00000      0.00000      12.8410      12.8410      30.2700      30.2700      30.2700      30.2700      30.2700
      967.000      336.000      308.376      29367.2      80108.4      125509.      125475.      125482.      125480.      3.00000
      964.000      361.000      285.485      28174.4      77503.7      125479.      125485.      125490.      125477.      3.00000
      50.0000      614.000      235.417      19311.7      55498.4      121592.      125478.      125485.      125485.      4.00000
      297.000      396.000      238.102      18104.4      49266.0      114187.      125492.      125498.      125487.      4.00000
      996.000      931.000      194.478      10716.4      34902.8      98822.9      125479.      125491.      125485.      4.00000
      481.000      99.0000      115.974      11546.9      35332.7      96852.0      125494.      125473.      125490.      4.00000
      213.000      482.000      158.074      9904.62      32619.5      92564.5      125480.      125502.      125473.      4.00000
      98.0000      87.0000      116.716      10905.9      33575.1      89534.5      125480.      125491.      125494.      4.00000
      466.000      982.000      262.361      9325.54      31010.6      86577.9      125499.      125490.      125502.      4.00000
      845.000      326.000      114.714      11043.4      35633.9      89802.4      125473.      125496.      125482.      4.00000
      919.000      767.000      194.523      9114.17      29389.8      82756.8      125480.      125486.      125484.      4.00000
      843.000      421.000      107.087      8065.61      26386.7      76700.9      125498.      125484.      125492.      4.00000
      343.000      526.000      163.464      10163.8      31318.8      81091.9      125470.      125494.      125474.      4.00000
      573.000      212.000      104.545      8675.56      26937.0      71847.4      125475.      125486.      125498.      4.00000
      37.0000      647.000      165.770      7725.41      24963.1      69748.1      125477.      125499.      125494.      4.00000
      515.000      513.000      145.804      8076.14      26237.4      69940.8      125502.      125496.      125478.      4.00000
      466.000      770.000      183.775      5776.38      21931.7      62514.2      125484.      125496.      125491.      4.00000
      859.000      357.000      74.7188      7076.67      22416.6      62445.0      125501.      125492.      125488.      4.00000
      599.000      452.000      102.967      6533.99      20709.1      59249.1      125474.      125483.      125498.      4.00000
      190.000      864.000      210.195      6412.44      21087.2      59708.0      125507.      125493.      125484.      4.00000
      967.000      351.000      116.399      5204.80      16943.7      53195.2      125498.      125494.      125473.      4.00000
      117.000      230.000      67.3017      5742.13      17914.8      51125.8      123654.      125474.      125477.      4.00000
      570.000      606.000      116.682      4378.15      14721.1      46248.1      125483.      125502.      125502.      4.00000
      345.000      147.000      68.4900      5004.96      15835.7      46656.7      123200.      125494.      125478.      4.00000
      649.000      346.000      58.3087      4192.78      14183.0      44471.5      125509.      125489.      125481.      4.00000
      967.000      337.000      75.6334      293.202      524.316      996.092      87968.4      125481.      125483.      5.00000
      3.00000      884.000      16.4669      3564.63      13317.1      42589.2      118515.      125491.      125483.      5.00000
      408.000      377.000      83.7469      5516.18      18412.4      48544.9      121267.      125480.      125480.      5.00000
      859.000      667.000      137.936      2802.74      9636.29      32161.1      106489.      125481.      125471.      5.00000
      297.000      252.000      52.6936      3665.14      11648.1      35612.4      107271.      125496.      125497.      5.00000
      242.000      621.000      128.192      3302.00      11374.3      36671.4      107824.      125482.      125479.      5.00000
      363.000      573.000      122.121      3314.49      10979.4      35028.0      106390.      125485.      125486.      5.00000
      842.000      1000.00      211.254      5115.97      16986.5      49654.1      116716.      125502.      125480.      5.00000
      142.000      23.0000      59.7747      4434.37      13853.5      40922.4      108462.      125469.      125478.      5.00000
      268.000      74.0000      67.9563      4949.84      15014.8      43177.1      109910.      125498.      125479.      5.00000
      898.000      949.000      183.197      2513.02      8935.10      30260.7      99771.1      125477.      125489.      5.00000
      149.000      356.000      74.9056      4665.75      15355.5      45185.7      111075.      125492.      125493.      5.00000
      92.0000      413.000      87.5922      6457.74      20341.3      54488.7      117882.      125480.      125493.      5.00000
      544.000      256.000      54.2695      3060.27      9796.19      30851.2      98596.6      125483.      125494.      5.00000
      546.000      747.000      144.030      2793.82      11176.8      36235.5      102878.      125491.      125492.      5.00000
      899.000      52.0000      69.1991      6957.26      20894.9      54325.9      114715.      125494.      125497.      5.00000
      910.000      336.000      57.4713      3170.16      10329.2      32475.2      97401.1      125482.      125480.      5.00000
      960.000      153.000      45.8294      3528.78      11455.0      35538.4      99238.4      125501.      125481.      5.00000
      689.000      807.000      160.843      2607.33      8977.66      29957.2      94642.1      125502.      125484.      5.00000
      25.0000      684.000      126.773      3708.72      12540.3      38076.1      101015.      125487.      125480.      5.00000
      1008.00      692.000      105.011      3181.65      10353.3      33902.2      96355.1      125490.      125500.      5.00000
      711.000      498.000      101.736      5096.27      16204.1      45262.9      102497.      125470.      125498.      5.00000
      462.000      84.0000      46.7915      3624.69      11341.0      33905.4      92225.9      125491.      125492.      5.00000
      984.000      295.000      60.8237      3441.77      11270.1      34763.0      92950.2      125482.      125485.      5.00000
      936.000      998.000      173.222      3956.60      13086.4      39046.9      96683.5      125501.      125481.      5.00000
      578.000      312.000      60.7956      4483.79      14388.6      40152.7      96444.2      125489.      125476.      5.00000
      103.000      483.000      89.4697      4167.42      13204.8      38278.5      94808.4      125501.      125477.      5.00000
      523.000      169.000      49.6624      3667.17      11648.1      34114.5      89373.2      125490.      125485.      5.00000
      581.000      381.000      56.4560      2304.16      7917.02      25537.9      81645.6      125479.      125491.      5.00000
      647.000      265.000      57.5096      3716.61      11806.0      34592.0      88415.1      125485.      125490.      5.00000
      123.000      79.0000      44.5697      3525.30      11214.4      33206.8      87092.0      125503.      125479.      5.00000
      887.000      625.000      121.672      2912.62      9926.80      31095.2      85512.2      125486.      125474.      5.00000
      634.000      10.0000      26.9471      3657.45      11076.3      32544.9      85955.5      125497.      125484.      5.00000
      549.000      905.000      183.928      2492.27      8885.38      29317.4      82819.9      125008.      125489.      5.00000
      874.000      134.000      28.8915      2429.98      7876.68      24824.6      78639.6      125480.      125503.      5.00000
      776.000      573.000      96.7981      2589.30      8871.73      28019.4      80399.1      123148.      125486.      5.00000
      707.000      781.000      150.755      2117.47      7237.40      23960.3      75743.0      124489.      125495.      5.00000
      139.000      0.00000      32.8024      2798.16      8728.23      26647.0      78015.8      122486.      125482.      6.00000
      1000.00      337.000      45.0331      2874.38      9613.47      29415.7      80640.0      122205.      125483.      6.00000
      3.00000      473.000     -82.0842      1467.62      5422.33      18729.6      61835.3      107834.      125474.      6.00000
      181.000      823.000      160.396      1539.76      5213.08      18291.8      61767.3      107518.      125497.      6.00000
      328.000      733.000      151.209      2004.79      6588.10      21711.6      67969.0      111820.      125499.      6.00000
      157.000      741.000      124.968      2315.73      7933.90      25739.8      75349.6      116873.      125502.      6.00000
      18.0000      679.000      111.863      2451.77      8671.30      27423.0      77488.4      118025.      125471.      6.00000
      491.000      588.000      115.298      2847.76      9636.13      29576.0      80547.6      120135.      125472.      6.00000
      345.000      13.0000      42.2162      2760.34      8654.50      26396.3      73962.1      114862.      125495.      6.00000
      948.000      551.000      108.424      2756.17      9402.35      29734.6      81940.3      120410.      125482.      6.00000
      481.000      100.000      17.9300      99.7546      180.489      342.906      7813.11      64914.9      125492.      6.00000
      120.000      68.0000      34.6544      2539.62      7976.61      24128.4      69819.6      109719.      125470.      6.00000
      147.000      68.0000      29.8729      2219.95      7198.77      21986.9      65095.0      105925.      125470.      6.00000
      305.000      696.000      129.031      2198.01      7252.97      23664.8      69611.9      109208.      125486.      6.00000
      47.0000      360.000      59.0235      2616.82      8495.69      26176.0      73118.1      111404.      125476.      6.00000
      964.000      360.000      27.3704      95.0637      131.846      220.378      42542.6      125469.      125476.      5.00000
      444.000      692.000      145.878      1987.06      6985.72      22653.6      67908.4      107130.      125500.      6.00000
      911.000      250.000      48.1056      2178.40      7404.11      22960.4      67272.5      106372.      125491.      6.00000
      397.000      137.000      30.9961      2225.02      7251.25      22222.9      65769.5      105162.      125492.      6.00000
      762.000      386.000      55.0671      2192.91      7465.23      23714.4      68261.3      106664.      125474.      6.00000
      487.000      880.000      153.578      2226.83      7609.27      24729.5      71047.6      108924.      125477.      6.00000
      391.000      888.000      178.375      3190.83      10733.3      32179.5      81199.8      115719.      125492.      6.00000
      134.000      705.000      153.794      2286.88      7792.10      24536.7      68933.2      106063.      125496.      6.00000
      956.000      727.000      113.492      2035.16      6977.11      22187.8      65674.8      103705.      125483.      6.00000
      744.000      647.000      114.169      2139.13      7330.98      23143.7      66906.0      104549.      125494.      6.00000
      345.000      213.000      93.1573      6042.72      18392.0      49970.5      73596.2      108418.      125497.      6.00000
      774.000      785.000      149.400      2123.68      7284.88      23162.3      66321.3      102379.      125492.      6.00000
      552.000      694.000      149.277      1894.86      6501.10      20850.4      62283.6      99216.0      125494.      6.00000
      365.000      875.000      185.386      2175.48      7810.84      25233.6      69930.7      104746.      125483.      6.00000
      236.000      340.000      60.0967      2844.37      9093.20      27476.6      71854.4      105816.      125493.      6.00000
      681.000      578.000      107.622      2001.02      7097.83      22007.7      63933.9      99690.8      125493.      6.00000
      449.000      264.000      51.9931      3270.12      10503.6      30526.2      76595.0      108503.      125492.      6.00000
      758.000      44.0000      26.2559      2275.04      7178.27      21780.4      62124.1      97750.5      125485.      6.00000
      719.000      958.000      169.592      2068.45      7225.12      24125.1      66907.1      101463.      125472.      6.00000
      858.000      355.000      35.7960      1873.67      6426.31      20619.0      61598.3      97171.3      125490.      6.00000
      19.0000      1018.00      186.040      1490.79      5467.42      18598.5      58490.3      95270.9      125490.      6.00000
      817.000      592.000      123.283      2115.26      7445.76      23625.5      65981.2      99982.5      125482.      6.00000
      588.000      243.000      34.0944      1926.42      6399.62      19762.9      58901.4      94424.3      125473.      6.00000
      76.0000      1017.00      160.840      1726.08      6393.00      21347.3      64176.1      98626.4      125485.      6.00000
      335.000      245.000      47.1682      2486.70      8104.66      24123.3      65617.4      98940.9      125472.      6.00000
      847.000      345.000      45.9116      1938.64      6634.61      21167.5      61190.1      95740.8      125484.      6.00000
      578.000      933.000      190.216      1282.57      4491.40      15329.9      50997.1      88138.1      125486.      6.00000
      996.000      930.000      132.297      113.971      139.474      285.672      6887.37      56054.5      125483.      6.00000
      947.000      122.000      28.8789      1701.57      5541.58      17203.3      53649.3      89478.8      125472.      6.00000
      226.000      7.00000      25.7574      1628.36      5291.83      16178.2      50837.0      87051.4      125482.      6.00000
      813.000      953.000      182.989      1979.26      6902.54      22352.8      63926.8      96989.4      125480.      6.00000
      794.000      306.000      38.5505      1780.92      6153.88      19307.7      57540.1      91968.0      125480.      6.00000
      651.000      420.000      55.3101      1684.21      5723.83      18301.3      55783.7      90592.7      125491.      6.00000
      795.000      80.0000      25.5626      1787.23      5895.56      18360.0      55963.3      90490.2      125483.      6.00000
      435.000      576.000      112.868      1812.34      6266.31      19896.0      58776.2      92540.5      125490.      6.00000
      738.000      875.000      166.292      1805.61      6670.14      22013.3      63672.2      95735.9      125483.      6.00000
      433.000      70.0000      25.9259      1675.20      5363.93      16743.8      51641.7      86503.9      125470.      6.00000
      173.000      263.000      31.2904      1117.70      3904.57      12048.1      36720.8      75652.2      125475.      6.00000
      566.000      215.000      56.5328      1857.35      6197.86      19029.2      56161.3      89338.2      125494.      6.00000
      218.000      785.000      151.587      1680.99      5960.37      19442.6      56798.2      89600.4      125492.      6.00000
      358.000      246.000      47.9720      2016.95      6503.73      19977.8      57031.0      89288.4      125476.      6.00000
      580.000      531.000      85.2513      1914.23      6409.18      20148.4      58189.2      90061.0      125492.      6.00000
      277.000      703.000      135.092      1410.95      5005.40      16784.5      53182.4      86339.5      125492.      6.00000
      685.000      522.000      83.2033      1227.60      4289.77      14464.7      47260.6      81897.0      125468.      6.00000
      307.000      107.000      29.3802      2010.22      6429.39      19450.8      55400.1      87561.6      125482.      6.00000
      9.00000      306.000     -4.62482      2015.46      6839.91      20803.0      57841.6      88165.0      125480.      6.00000
      232.000      45.0000      24.1606      1897.56      6058.60      18346.7      53107.1      84307.5      125486.      6.00000
      523.000      626.000      162.540      1666.03      5741.52      18097.2      53823.6      84938.5      125469.      6.00000
      907.000      703.000      135.092      1142.96      4032.16      13519.2      44624.4      78082.3      125492.      6.00000
      771.000      412.000      57.7418      1518.79      5093.58      16260.8      50312.3      81798.0      125493.      6.00000
      223.000      273.000      35.2243      1183.48      4508.30      14559.7      45801.9      78292.9      125484.      6.00000
      3.00000      19.0000     -148.409      1636.01      5652.13      17547.0      51739.6      82335.4      125487.      6.00000
      303.000      118.000      21.3944      1773.94      5831.63      17910.6      51871.2      82468.2      125477.      6.00000
      505.000      470.000      80.3901      2846.82      9241.64      27308.4      67774.2      94005.5      125479.      6.00000
      264.000      101.000      43.3899      1588.12      5244.08      16190.0      49323.5      80302.0      125493.      6.00000
      865.000      462.000      74.9615      2399.34      7951.24      23978.8      60943.0      88537.1      125495.      6.00000
      945.000      197.000      25.5917      1983.07      6522.33      19794.2      54846.8      83833.9      125485.      6.00000
      96.0000      767.000      150.208      1465.54      5143.54      16363.9      49475.7      79539.2      125484.      6.00000
      586.000      516.000      84.5512      1389.30      4662.39      15315.0      47200.7      77745.6      125476.      6.00000
      844.000      950.000      179.869      1713.81      6355.95      20874.1      57773.9      85457.7      125485.      6.00000
      693.000      236.000      41.7186      1612.23      5394.34      16928.6      50056.7      79236.9      125475.      6.00000
      349.000      126.000      28.0745      1680.63      5442.58      16815.0      49618.4      78745.5      125489.      6.00000
      417.000      152.000      33.6939      1849.89      5959.74      18110.7      51756.2      80226.6      125478.      6.00000
      387.000      799.000      158.633      1488.21      4999.34      16097.2      48715.7      77992.6      125479.      6.00000
      198.000      686.000      108.547      1452.37      5262.65      16653.6      49169.2      78248.5      125474.      6.00000
      440.000      705.000      134.802      1372.65      5005.05      16253.7      49884.9      78640.8      125496.      6.00000
      757.000      317.000      48.5822      1774.19      5741.45      17721.1      50799.0      78801.0      125484.      6.00000
      820.000      262.000      42.8593      1730.87      5886.68      18255.1      52018.4      79481.8      125493.      6.00000
