PDS_VERSION_ID         = PDS3
RECORD_TYPE            = STREAM
OBJECT                 = TEXT
  PUBLICATION_DATE     = 2014-02-19
  INTERCHANGE_FORMAT   = ASCII
  NOTE                 = "NAC hot pixel file for epoch 2004.8."
END_OBJECT             = TEXT
END

NAC hot pixel list. Lines 1 and 2 are column headings giving exposure time 
(sec) and gain state (e-/DN), respectively, of source dark images. Starting 
on line 3, first two columns indicate x and y value of hot pixel; columns 3 
through N-1 give median electron counts for each exposure bin, and last (Nth) 
column contains either the index of the exposure bin where saturation first 
occurs, or -1 if no saturation.

\begindata
      0.00000      0.00000   0.00500000     0.380000     0.460000      1.50000      1.80000      2.60000      10.0000      12.0000      32.0000      100.000      220.000      320.000      460.000      1200.00
      0.00000      0.00000      30.2700      30.2700      30.2700      30.2700      30.2700      30.2700      30.2700      12.8410      30.2700      30.2700      30.2700      30.2700      30.2700      30.2700
      98.0000      87.0000      87.7795      378.642      490.477      1365.93      1513.25      2223.88      8310.78      9854.62      25861.6      72999.2      123467.      123487.      123472.      123476.      10.0000
      37.0000      647.000      152.179      389.803      460.097      1254.93      1488.07      2179.32      8420.77      10042.2      26057.4      71630.2      123478.      123467.      123476.      123471.      10.0000
      149.000      356.000      22.4956      2.00297      9.65344      24.0909      6.65873      20.5378      79.0569      80.2509      135.726      61846.2      304.874      123471.      383.778      467.772      11.0000
      634.000      10.0000      28.1909      8.56405      20.4666      5.96402      9.50182      7.13603      4258.59      995.370      7506.12      14564.8      70877.4      22501.9      115661.      123455.      13.0000
      919.000      199.000      94.5312      410.220      452.927      1358.89      1638.35      2199.00      8410.91      10194.7      25867.3      69363.9      118911.      123476.      123481.      123475.      11.0000
      123.000      79.0000      104.638      498.347      583.514      1753.37      1956.77      2789.03      9492.03      11259.2      28404.7      73847.5      122275.      123471.      123463.      123475.      11.0000
      599.000      452.000      101.140      360.979      450.819      1251.51      1392.80      2026.05      7185.37      8579.50      22222.3      61344.6      110554.      123481.      123472.      123472.      11.0000
      444.000      692.000      119.807      185.363      185.549      362.147      455.074      606.863      2222.67      2665.94      7263.18      33590.5      45875.0      116202.      86717.2      123468.      13.0000
      711.000      498.000      53.9206      26.5517      35.4095      48.6245      6.39445      16.4629      74.7294      82.5765      160.452      24911.5      305.374      107970.      377.029      452.400     -1.00000
      726.000      603.000      91.6646      274.324      272.886      821.394      1005.17      1371.94      3227.70      2533.68      9766.55      21678.9      58485.1      44103.2      100299.      123464.      13.0000
      18.0000      679.000      59.0513      7.31874      5.25436      19.6851      48.4731      90.8137      82.4681      524.429      1292.16      34014.6      279.004      123475.      343.414      45100.5      11.0000
      875.000      570.000      100.048      187.323      273.826      670.099      807.410      999.325      3833.72      3621.69      10430.5      16247.0      75339.8      5016.45      123468.      123469.      12.0000
      552.000      694.000      105.205      94.9939      113.523      215.821      207.389      291.261      1887.81      2271.84      6022.25      29099.1      38257.2      102473.      71888.1      123473.      13.0000
      731.000      536.000      71.7080      142.112      100.620      366.717      376.406      578.588      2058.39      1055.12      6148.93      12249.5      39354.1      19428.7      70168.4      123464.      13.0000
      462.000      84.0000      32.0464      120.699      130.084      278.123      287.936      466.196      1816.79      2096.89      5628.15      22444.9      35649.7      78939.8      67977.2      123468.      13.0000
      64.0000      357.000      39.8621      143.961      148.989      363.928      468.018      600.488      2101.02      2503.25      6617.83      16532.1      41339.0      37019.9      75450.6      123454.      13.0000
      147.000      68.0000      31.4997      96.0683      88.6615      185.184      285.038      368.389      1498.49      3030.03      7925.65      24028.8      29466.0      69097.8      57750.0      123477.      13.0000
      617.000      756.000      126.295      239.338      268.124      600.537      665.220      910.453      3487.27      4005.12      11058.8      33557.5      68114.3      90150.1      117207.      123473.      13.0000
      1023.00      496.000      108.202      110.053      102.902      134.343      118.024      102.178      228.746      244.587      401.957      12654.7      817.596      67645.8      969.732      1342.16     -1.00000
      857.000      398.000      24.8040      11.1620      5.04000      37.9652      2.68615      45.7730      77.9167      88.9370      139.948      12325.1      281.333      63714.7      369.755      479.702     -1.00000
      762.000      386.000      52.5495      202.842      191.279      478.379      573.917      791.607      2823.38      3321.66      8961.25      26980.2      55145.5      75319.8      99886.0      123469.      13.0000
      64.0000      477.000      46.2097      103.542      97.8793      273.819      365.415      498.386      1537.22      1481.51      3964.67      12264.6      33389.3      38704.2      68318.7      123477.      13.0000
      487.000      880.000      137.694      184.848      199.753      574.635      593.551      812.647      2710.99      3241.54      8563.79      26138.8      53681.8      71751.0      96212.5      123473.      13.0000
      305.000      696.000      97.3764      126.254      187.523      467.835      501.572      686.842      2465.23      2905.67      7798.52      21423.4      49109.8      69434.1      91639.0      123471.      13.0000
      578.000      312.000      81.5255      270.958      269.712      909.384      1010.30      1483.81      4647.35      5456.09      15244.3      41549.3      72434.3      98640.1      115413.      123471.      13.0000
      689.000      807.000      122.244      211.249      218.037      415.789      470.434      679.468      2586.76      3080.35      8158.77      27648.4      53980.7      90190.7      108514.      123478.      13.0000
      847.000      345.000      53.5529      102.478      184.698      404.775      464.968      663.687      2357.91      2819.39      7496.33      22796.3      46892.4      64162.5      85772.1      123473.      13.0000
      817.000      592.000      91.7144      180.939      228.389      374.544      479.590      625.799      2481.18      2694.92      7874.62      23590.5      49352.0      67254.9      88425.0      123467.      13.0000
      87.0000      156.000      37.3936      110.674      92.0712      296.388      307.469      458.204      1518.00      1860.66      4795.48      14590.2      31058.8      35595.4      60482.8      123466.      13.0000
      277.000      703.000      93.5849      116.029      117.673      294.030      381.455      586.771      1698.84      2037.41      5560.66      17799.5      38429.7      54360.5      74894.3      123474.      13.0000
      307.000      107.000      43.5516      93.0304      146.905      364.861      452.947      581.614      2090.76      2526.99      6521.80      19686.1      40523.8      56255.4      75553.0      123466.      13.0000
      719.000      958.000      125.610      184.940      227.520      387.078      461.325      687.276      2365.16      2850.84      7577.46      23302.4      46622.1      62746.8      81580.5      123478.      13.0000
      232.000      45.0000      26.4982      93.1956      108.136      272.373      361.615      576.844      1950.33      2283.27      6112.55      18388.7      37939.6      52879.7      71311.0      123468.      13.0000
      691.000      97.0000      29.8199      93.8912      93.9848      285.997      304.945      484.863      1658.81      1952.90      5212.50      16101.5      33851.0      47738.6      66982.4      123473.      13.0000
      798.000      803.000      83.6186      29.2814      91.2075      54.7636      121.919      92.1225      121.787      113.175      234.722      8262.97      528.763      47694.3      849.283      1699.29     -1.00000
      766.000      863.000      112.677      230.664      269.824      578.743      718.704      949.045      1912.09      1947.86      6243.65      18997.9      39690.3      56513.1      74500.8      123476.      13.0000
      173.000      726.000      98.1535      97.5829      182.517      365.013      375.333      572.987      1783.95      2127.40      5922.07      18100.5      37811.4      51652.3      70108.2      123473.      13.0000
      309.000      728.000      81.7065      91.3957      1.80984      52.3625      95.6601      93.6008      111.701      90.1303      160.040      7264.17      328.741      45884.6      365.617      471.329     -1.00000
      757.000      317.000      50.5105      88.4845      123.414      321.331      392.570      493.735      1965.19      2313.39      6219.39      18639.2      38164.2      52170.2      69574.4      123468.      13.0000
      144.000      995.000      105.195      50.8354      86.7223      94.4438      57.1774      94.1034      107.240      114.318      194.576      8008.98      283.448      46781.3      304.867      388.248     -1.00000
      417.000      152.000      32.3073      91.6358      106.723      361.280      377.660      577.541      1963.35      2331.58      6174.54      18507.9      37797.0      52102.5      69239.8      123474.      13.0000
      213.000      482.000      67.2858      86.0838      126.713      265.399      299.588      378.510      1428.93      1753.37      4649.92      14674.8      31301.5      45464.8      63325.2      123476.      13.0000
      624.000      893.000      115.398      148.003      151.749      295.602      370.554      499.038      1619.77      1934.37      5138.94      16132.8      34065.6      47941.6      65081.7      123479.      13.0000
      774.000      911.000      119.408      137.536      134.074      278.503      369.371      452.565      1619.99      1915.55      5256.63      16294.4      33663.7      47178.4      62947.1      123109.      13.0000
      973.000      430.000      34.9123      19.8461      13.2918      40.6725      46.6589      23.3608      82.2413      63.8488      128.183      1630.96      268.752      38809.1      332.432      427.496     -1.00000
      606.000      79.0000      17.0135      18.8412      8.38414      14.7220      49.7564    0.0348163      119.641      116.171      294.544      6905.49      1591.48      37931.0      3135.58      7695.33     -1.00000
      844.000      950.000      129.419      198.298      184.797      501.660      589.393      791.364      3176.61      3870.65      10740.3      37082.2      61912.4      99570.7      105164.      123475.      13.0000
      580.000      531.000      63.3270      5.53970      27.5085      3.56725      57.5392      1.94729      112.420      96.7530      158.419      5947.73      304.007      34548.6      376.784      542.908     -1.00000
      121.000      331.000      30.9309      11.1986      4.41388      90.7230      35.8675      46.6937      260.206      297.120      685.437      6455.23      4141.29      33860.8      8234.71      20684.9     -1.00000
      483.000      824.000      108.511      1.71403      34.5885      52.2686      14.2593      56.4159      109.010      88.9663      180.218      6006.73      309.592      35447.8      364.270      473.692     -1.00000
      744.000      647.000      91.0011      134.019      115.658      286.295      366.433      453.932      1486.47      1655.11      4528.10      15198.8      30934.0      48676.8      60480.7      123471.      13.0000
      191.000      582.000      76.3410      143.917      129.170      276.355      317.802      402.965      1486.51      1733.52      4814.82      14853.5      31241.5      43706.5      59781.2      120827.     -1.00000
      665.000      677.000      89.5014      98.1457      100.670      287.263      311.191      453.621      1473.28      1738.30      4693.31      14244.4      29876.7      42174.7      57794.2      120781.     -1.00000
      881.000      92.0000      28.7560      107.395      114.310      276.727      273.015      395.619      1459.83      762.924      4627.30      7404.11      30498.4      1451.74      58650.1      118878.     -1.00000
      500.000      704.000      94.8284      118.596      112.712      186.174      272.370      315.869      1206.07      1461.97      3949.11      12505.0      27031.0      38683.0      53550.2      119835.     -1.00000
      985.000      997.000      106.960      112.964      125.956      231.182      241.589      366.025      1374.72      1625.11      4458.30      13792.4      28799.9      41255.6      56272.9      120039.     -1.00000
      247.000      466.000      45.6860      43.0504      126.042      184.928      275.155      293.270      1079.54      988.542      3238.35      8549.46      22524.8      23418.7      46440.0      113240.     -1.00000
      380.000      1.00000      8.54631      97.7085      10.1801      224.546      280.712      359.993      1084.90      1270.46      3288.06      10123.8      22171.2      31392.4      45850.2      115385.     -1.00000
      380.000      2.00000      24.0198      100.473      99.6470      217.291      283.125      362.514      979.647      1193.39      3141.33      9755.55      21347.3      30640.1      44698.5      115236.     -1.00000
      762.000      852.000      119.167      38.3726      102.445      111.383      119.386      97.4706      104.449      99.7198      224.103      6311.93      344.931      32465.5      400.881      516.095     -1.00000
      795.000      80.0000      25.4150      92.8005      90.2701      185.571      181.355      363.208      1161.87      1284.92      3692.84      15243.7      24200.7      58715.1      48302.8      109064.     -1.00000
      802.000      40.0000      20.1004      91.9433      93.6734      213.705      272.811      362.371      1390.35      1671.42      4437.23      13474.0      28518.2      39439.0      53967.6      108921.     -1.00000
      592.000      399.000      48.3816      99.3717      96.9305      181.185      239.577      311.042      965.371      1146.91      3070.71      9541.34      21007.2      30630.4      43539.6      108100.     -1.00000
      566.000      332.000      41.2134      94.9416      99.0936      183.994      270.120      314.424      1177.18      1376.43      3768.22      11926.9      24680.7      36652.0      48585.2      106321.     -1.00000
      43.0000      578.000      67.3624      120.322      105.564      221.071      283.613      277.360      1140.56      1064.41      3208.01      10137.7      24828.2      31825.1      50131.9      106070.     -1.00000
      47.0000      948.000      78.5996      25.5768      3.01937      95.0944      50.6238      94.8023      98.0493      277.148      554.868      1684.26      247.499      30248.0      325.925      16455.1     -1.00000
      845.000      863.000      105.864      101.411      93.2307      185.233      298.521      313.375      963.464      1155.95      3000.30      9626.82      21555.5      31146.8      44561.1      106151.     -1.00000
      527.000      84.0000      25.7065      120.699      130.084      187.313      269.474      375.386      1294.54      1470.74      4132.90      12012.1      26192.2      34112.4      49979.2      103146.     -1.00000
      584.000      74.0000      10.1896      92.6277      97.1823      269.451      240.602      364.190      1255.20      1484.07      3895.67      11894.6      30888.7      35461.0      49254.2      102276.     -1.00000
      210.000      160.000      30.5151      89.3295      140.470      411.935      460.003      614.224      1832.04      2529.81      6557.80      19495.8      33350.5      53050.1      60868.6      123443.      13.0000
      96.0000      767.000      98.7445      145.751      123.556      234.243      296.609      364.186      1174.20      1401.17      3667.62      11263.3      23924.2      34281.3      47025.4      102195.     -1.00000
      755.000      324.000      37.6568      13.4627      83.9930      189.216      202.646      287.966      995.908      1171.74      3135.42      9677.98      21302.6      30181.0      43210.1      100901.     -1.00000
      760.000      486.000      48.4076      56.7612      57.6493      30.8340      17.0669      95.2222      85.9018      96.4345      159.953      4235.86      285.422      27093.0      358.260      449.685     -1.00000
      181.000      823.000      105.338      90.5717      103.995      145.419      97.8905      119.181      840.356      1117.11      2806.58      8537.74      16863.3      27241.3      35235.7      99674.3     -1.00000
      207.000      732.000      89.9026      37.7899      121.086      97.6400      110.085      101.618      268.639      1076.78      2800.77      5311.21      4353.52      26670.8      8897.11      22307.7     -1.00000
      777.000      92.0000      23.5816      94.0775      23.5000      219.507      271.427      304.809      1210.40      1436.60      3823.96      11663.7      24527.0      34038.8      46362.2      94317.6     -1.00000
      324.000      402.000      37.5765      96.7344      118.466      271.902      232.109      312.632      1087.70      1296.24      3373.63      9969.83      22067.8      29448.0      43340.4      93567.5     -1.00000
      325.000      995.000      92.1836      115.317      98.3375      223.427      180.094      275.723      890.629      1045.56      2841.35      9049.80      19987.3      28998.4      40840.8      95304.1     -1.00000
      458.000      57.0000      15.6151      14.6827      54.3162      198.670      240.975      320.736      1116.60      1200.66      3637.63      10188.9      22936.6      27506.2      43847.2      92713.8     -1.00000
      771.000      492.000      62.3213      107.093      89.2953      191.867      196.006      280.800      1077.93      1270.70      3383.26      8943.14      22173.4      27453.0      43344.1      93018.6     -1.00000
      831.000      303.000      24.6401      14.5209      24.7084      14.7637      111.521      1.26400      91.9443      86.9520      136.253      3681.67      293.864      24987.8      360.314      459.199     -1.00000
      476.000      340.000      39.2134      119.517      55.2392      184.011      277.272      364.629      1097.75      1301.12      3399.82      10417.9      22155.4      31079.4      42918.5      91628.5     -1.00000
      62.0000      49.0000      31.7259      99.2220      88.8559      227.832      191.791      300.682      1137.35      1333.77      3516.75      10590.5      22214.3      31183.5      42793.1      90734.7     -1.00000
      563.000      903.000      124.662      91.9962      93.2186      183.571      191.685      284.489      816.782      483.218      2523.21      4445.82      18236.5      5431.61      37835.9      92520.8     -1.00000
      831.000      59.0000      21.6359      35.2140      97.1411      146.959      179.490      287.253      930.044      1094.13      2898.76      9023.83      19409.6      27254.1      39280.6      89210.7     -1.00000
