PDS_VERSION_ID         = PDS3
RECORD_TYPE            = STREAM
OBJECT                 = TEXT
  PUBLICATION_DATE     = 2014-02-19
  INTERCHANGE_FORMAT   = ASCII
  NOTE                 = "WAC hot pixel file for epoch 2008.5."
END_OBJECT             = TEXT
END

WAC hot pixel list. Lines 1 and 2 are column headings giving exposure time 
(sec) and gain state (e-/DN), respectively, of source dark images. Starting 
on line 3, first two columns indicate x and y value of hot pixel; columns 3 
through N-1 give median electron counts for each exposure bin, and last (Nth) 
column contains either the index of the exposure bin where saturation first 
occurs, or -1 if no saturation.

\begindata
      0.00000      0.00000      0.00000      10.0000      32.0000      100.000      560.000      1200.00
      0.00000      0.00000      11.7270      11.7270      27.6800      27.6800      27.6800      27.6800
      518.000      858.000      251.835      11228.5      35608.5      98121.0      111354.      111356.      4.00000
      554.000      174.000      149.176      12809.0      38398.2      98116.9      111345.      111350.      4.00000
      833.000      328.000      128.361      13525.9      40333.7      98313.1      111354.      111351.      4.00000
      792.000      1007.00      295.902      13037.6      39065.1      96644.6      111354.      111353.      4.00000
      577.000      598.000      173.811      6264.24      20353.2      58587.0      111355.      111353.      4.00000
      685.000      585.000      171.351      7413.38      22454.1      56634.8      111340.      111348.      4.00000
      259.000      132.000      86.5867      5715.41      18132.0      52200.1      111347.      111347.      4.00000
      561.000      116.000      77.0267      6098.77      18686.2      50218.9      111345.      111346.      4.00000
      962.000      403.000      78.1050      5274.19      16580.7      45950.6      111348.      111351.      4.00000
      162.000      1018.00      229.266      4009.60      13945.6      41884.9      111352.      111347.      4.00000
      947.000      51.0000      52.8375      3813.61      12148.7      36637.4      111349.      111350.      4.00000
      365.000      612.000      150.252      3283.91      11023.5      33042.0      111359.      111352.      4.00000
      224.000      420.000      99.2424      2944.26      9833.40      30219.9      111349.      111352.      4.00000
      906.000      454.000      89.9883      2979.39      9570.23      28943.8      111345.      111346.      4.00000
      945.000      87.0000      19.5479      749.299      2370.96      25005.9      105124.      73826.0     -1.00000
      518.000      859.000      217.411      312.823      584.571      1057.84      95269.4      111355.      5.00000
      9.00000      297.000      87.4926      3173.11      10157.9      30409.8      108721.      111343.      5.00000
      971.000      821.000      181.235      2341.51      7881.66      24046.8      103713.      111354.      5.00000
      666.000      481.000      86.3176      2984.52      9693.97      28358.9      105204.      111359.      5.00000
      615.000      629.000      135.100      2208.00      7420.17      23271.1      102105.      111355.      5.00000
      119.000      316.000      69.0219      3144.77      9797.72      28314.7      104403.      111351.      5.00000
      54.0000      76.0000      47.2606      2912.00      9138.06      26270.5      100275.      111345.      5.00000
      826.000      799.000      169.671      2428.42      8048.44      24512.4      98843.8      111356.      5.00000
      707.000      655.000      146.796      2792.82      9143.83      27309.7      98558.6      111345.      5.00000
      281.000      753.000      172.376      3030.69      10068.7      29538.9      98200.1      111345.      5.00000
      640.000      997.000      276.041      6324.43      21056.4      30844.0      111351.      111346.      4.00000
      675.000      929.000      205.770      1958.89      6649.27      20295.2      88880.3      111351.      5.00000
      787.000      651.000      154.896      2041.34      6661.67      19706.5      88106.4      111358.      5.00000
      662.000      623.000      138.695      1532.67      5009.31      15869.5      84496.0      111349.      5.00000
      630.000      1000.00      212.489      1937.12      6393.55      19797.1      86098.2      111343.      5.00000
      775.000      945.000      189.498      1920.75      6254.33      19665.3      85948.8      111349.      5.00000
      842.000      712.000      151.859      1530.15      4928.39      15598.0      81787.9      111350.      5.00000
      570.000      705.000      146.049      1656.97      5591.87      17383.8      83421.2      111356.      5.00000
      1007.00      108.000      35.6530      1994.89      6288.48      19196.4      80935.3      111343.      5.00000
      898.000      537.000      101.053      1685.13      5676.22      17516.0      79547.6      111355.      5.00000
      78.0000      277.000      69.5624      1823.17      5849.27      17792.8      78026.9      111351.      5.00000
      950.000      163.000      27.8402      1529.61      4918.39      15058.9      76725.5      111353.      5.00000
      27.0000      157.000      53.6015      1712.51      5455.67      16609.8      78099.9      111348.      5.00000
      518.000      314.000      62.1666      1751.76      5675.08      16919.2      75608.6      111350.      5.00000
      196.000      915.000      176.399      1504.87      4953.97      15996.3      75758.0      111354.      5.00000
      385.000      611.000      107.624      1821.22      5981.25      17847.0      74900.4      111349.      5.00000
      176.000      663.000      118.249      1353.07      4467.22      13839.1      70664.5      111349.      5.00000
      293.000      642.000      145.587      1535.14      5011.76      15600.4      69795.8      111345.      5.00000
      822.000      465.000      98.7851      1468.54      4754.86      14735.0      70002.7      111350.      5.00000
      554.000      175.000      46.7927      122.245      249.079      381.902      58210.9      111351.      5.00000
      569.000      760.000      155.147      1524.56      4906.75      15028.1      67030.6      110887.      5.00000
      378.000      87.0000      43.0018      1662.25      5311.70      15860.3      68836.6      111350.      5.00000
      139.000      210.000      35.2677      1586.88      4929.80      14833.2      67119.9      111345.      5.00000
      631.000      4.00000      22.0177      1500.34      4514.99      13620.1      65206.8      111348.      5.00000
      625.000      654.000      135.971      1329.80      4422.92      13803.7      65311.9      111035.      5.00000
      675.000      260.000      51.1499      1320.25      4376.11      13270.3      63551.1      110049.      5.00000
      372.000      333.000      36.0865      1145.43      3595.18      11333.3      61502.9      111347.      5.00000
      91.0000      394.000      63.6636      1178.33      3713.04      11590.8      60667.1      109662.      5.00000
      1000.00      61.0000      30.9881      1190.01      3851.42      10438.8      59412.8      111339.      5.00000
      268.000      77.0000      39.2488      2341.79      7049.50      20015.4      72067.9      107081.     -1.00000
      788.000      101.000      18.3067      1242.75      4001.80      12305.8      60221.0      106724.     -1.00000
      714.000      257.000      32.2808      1077.34      3529.62      10989.1      57019.7      106376.     -1.00000
      131.000      429.000      82.1479      1231.25      3904.34      12125.4      59205.8      106227.     -1.00000
      31.0000      908.000      157.938      1543.36      4982.52      15945.2      73411.9      106692.     -1.00000
      856.000      823.000      164.331      1278.02      4460.08      14531.6      64204.9      106225.     -1.00000
      982.000      15.0000      31.8833      1395.07      4218.33      12539.2      58825.2      104978.     -1.00000
      547.000      370.000      30.0406      1645.64      5174.27      15633.0      65716.8      105182.     -1.00000
      996.000      243.000      30.2357      1368.78      4344.74      13311.3      60799.4      103898.     -1.00000
      198.000      682.000      142.819      2313.51      7342.38      21064.0      72630.6      103291.     -1.00000
      378.000      741.000      182.783      1149.91      3794.27      11901.2      57925.1      102006.     -1.00000
      300.000      655.000      143.381      1283.05      4133.82      12757.1      63100.5      101778.     -1.00000
      348.000      584.000      96.6108      948.530      3068.81      9498.72      51042.8      101585.     -1.00000
      590.000      545.000      116.860      1448.17      4623.39      13776.5      61022.9      100426.     -1.00000
      270.000      26.0000      7.15784      1067.69      3513.73      10849.1      54193.1      99861.1     -1.00000
      679.000      128.000      40.2508      1179.11      3849.28      12120.0      57035.5      98915.4     -1.00000
      705.000      195.000      65.3221      1252.25      3873.50      11703.7      55183.2      98205.5     -1.00000
      204.000      490.000      88.1723      1297.39      4159.14      12528.2      56794.7      97079.0     -1.00000
      44.0000      6.00000     0.297433      1172.77      3627.85      11051.9      52861.1      95206.4     -1.00000
      519.000      951.000      215.797      1011.27      3289.22      10309.3      51850.4      95623.9     -1.00000
      718.000      160.000      53.1697      959.675      3133.23      9651.17      49895.7      93003.1     -1.00000
      107.000      183.000      63.6779      1186.50      3702.91      11235.4      52983.0      93017.4     -1.00000
      169.000      539.000      107.767      1014.83      3243.06      10071.9      50711.0      93103.9     -1.00000
      83.0000      346.000      55.2903      1395.76      4266.92      9819.11      49959.0      92527.8     -1.00000
      382.000      814.000      153.321      1003.09      3402.40      10984.0      52870.2      91476.6     -1.00000
      999.000      454.000      45.9890      810.266      2622.00      8141.84      43917.3      88259.4     -1.00000
      208.000      776.000      152.634      1027.29      3106.05      9682.56      47604.0      88215.5     -1.00000
      258.000      770.000      152.534      1219.32      3992.79      12172.4      53447.8      87547.9     -1.00000
      339.000      693.000      158.740      995.042      3137.46      9871.73      48489.6      86591.1     -1.00000
      117.000      400.000      62.8904      852.174      2793.02      8632.49      45024.7      85694.4     -1.00000
      776.000      274.000      61.5050      868.734      2651.22      8069.71      42267.7      85490.0     -1.00000
      349.000      949.000      186.586      945.399      3118.11      9680.03      47880.3      86010.4     -1.00000
      95.0000      485.000      60.0436      843.414      2630.02      8210.36      42977.0      84996.1     -1.00000
      689.000      775.000      161.494      774.844      2529.75      7910.85      42881.9      85156.4     -1.00000
      911.000      112.000      40.6259      771.029      2458.26      7612.08      40926.2      84253.3     -1.00000
      996.000      806.000      127.627      778.962      2549.35      7927.88      42587.0      83188.5     -1.00000
      631.000      32.0000      24.4498      1079.17      3226.24      9825.64      46972.0      82411.9     -1.00000
      640.000      998.000      200.829      237.129      434.231      584.631      1347.94      82385.1     -1.00000
      762.000      536.000      92.3827      952.551      3266.16      10169.5      46026.0      81298.2     -1.00000
      602.000      231.000      57.6592      903.735      2739.26      8210.42      42095.8      80457.3     -1.00000
      476.000      192.000      45.9656      878.297      2718.95      8382.84      41944.7      80096.5     -1.00000
      426.000      434.000      51.1807      764.710      2264.70      7197.87      39680.6      80133.9     -1.00000
      971.000      699.000      110.790      770.646      2475.97      7842.27      42103.3      80289.9     -1.00000
      719.000      37.0000      9.42376      816.293      2539.51      7617.24      40136.0      78740.8     -1.00000
      845.000      827.000      150.500      783.020      2525.02      8113.19      42926.6      79375.3     -1.00000
      293.000      379.000      60.9788      921.959      3010.45      9136.20      44168.6      78702.8     -1.00000
      193.000      706.000      135.856      785.346      2538.65      7836.08      41299.9      78672.8     -1.00000
      860.000      925.000      165.939      812.043      2609.22      8301.98      42134.0      78184.1     -1.00000
      911.000      478.000      64.5118      855.090      2769.02      8386.41      41902.4      76979.9     -1.00000
      518.000      857.000      190.252      107.549      189.750      272.354      13983.1      77074.0     -1.00000
      486.000      353.000      66.3829      882.987      2739.38      8189.16      40797.1      76558.0     -1.00000
      828.000      871.000      182.879      809.977      2557.28      7859.07      40382.5      76368.5     -1.00000
      640.000      996.000      191.465      104.275      196.436      261.175      392.724      76300.2     -1.00000
      57.0000      393.000      73.7840      833.445      2624.30      8025.20      40759.2      75667.6     -1.00000
      113.000      103.000      25.6280      896.386      2860.38      8494.87      40050.7      72736.6     -1.00000
      298.000      451.000      37.4199      866.086      2698.72      8328.67      40709.9      72796.6     -1.00000
      577.000      599.000      148.590      166.311      339.016      584.737      5740.50      72768.1     -1.00000
      264.000      275.000      56.5664      928.474      2766.51      8611.85      40954.5      72460.6     -1.00000
      668.000      920.000      150.451      700.014      2234.58      7487.15      39020.1      72453.9     -1.00000
      813.000      18.0000     -3.59940      838.576      2572.60      7837.03      38577.8      71300.8     -1.00000
      894.000      781.000      156.565      801.785      2396.68      7534.92      38307.2      71169.7     -1.00000
      626.000      890.000      179.538      733.266      2182.71      7013.22      37506.5      71167.9     -1.00000
      812.000      397.000      45.3907      754.406      2320.37      7225.01      37045.7      70656.4     -1.00000
      899.000      837.000      165.920      681.853      2184.29      6711.12      36036.5      70916.9     -1.00000
      358.000      225.000      57.1891      677.753      2053.65      6282.34      34378.2      70309.3     -1.00000
      880.000      959.000      166.131      613.135      1866.70      5912.27      33698.3      70467.0     -1.00000
      449.000      291.000      50.9552      767.465      2496.27      7443.54      37175.9      69638.5     -1.00000
      750.000      336.000      17.9702      715.431      2296.13      7113.34      36693.6      69422.9     -1.00000
      1002.00      695.000      116.634      730.768      2293.75      7073.65      36096.6      69655.4     -1.00000
      833.000      329.000      45.3433      221.003      380.736      610.745      35094.1      69147.3     -1.00000
      377.000      252.000      51.5502      740.061      2299.08      6938.83      35606.4      68636.4     -1.00000
      497.000      390.000      57.3618      791.799      2376.87      7529.90      37175.3      68641.0     -1.00000
      97.0000      627.000      98.1323      781.803      2411.18      7266.32      36917.8      68500.0     -1.00000
      149.000      763.000      142.361      791.998      2669.49      7031.94      35626.6      67997.8     -1.00000
      75.0000      421.000      41.9840      729.998      2240.99      6610.91      34898.0      67402.6     -1.00000
      585.000      354.000      72.9656      630.452      1963.47      6142.93      33236.4      67307.3     -1.00000
      554.000      173.000      38.4139      61.4492      169.099      273.972      6220.12      67038.4     -1.00000
      988.000      777.000      108.658      564.550      1802.98      5510.86      31194.2      66725.0     -1.00000
      333.000      901.000      166.503      621.027      2017.73      6260.80      33455.4      66642.1     -1.00000
      493.000      874.000      190.770      779.963      2407.95      7172.65      35922.5      66366.2     -1.00000
      231.000      20.0000      28.0549      933.868      2764.07      8157.49      37774.5      65682.0     -1.00000
      690.000      144.000      35.9928      851.123      2744.13      8210.03      37508.4      65652.5     -1.00000
      677.000      370.000      65.2915      649.320      1964.40      6110.32      32684.7      65793.4     -1.00000
      431.000      741.000      143.520      703.529      2108.69      6448.78      33593.8      64823.3     -1.00000
      356.000      70.0000      35.6389      690.795      2077.62      6589.20      33660.8      63573.5     -1.00000
      868.000      257.000     -15.3509      605.830      1882.89      5612.90      30731.7      63666.9     -1.00000
      912.000      647.000      127.584      572.580      1837.37      5452.58      30312.8      63737.1     -1.00000
      783.000      337.000      23.6060      665.661      2084.21      6065.64      31595.5      63153.2     -1.00000
      278.000      187.000      19.5008      623.346      1999.78      6085.50      30458.8      62881.7     -1.00000
      1002.00      897.000      162.569      593.276      1946.67      6056.19      33025.7      62966.2     -1.00000
      730.000      825.000      130.105      647.387      1970.49      5945.39      31690.1      62028.1     -1.00000
      909.000      161.000      46.1252      546.965      1903.59      5528.76      30072.1      61305.0     -1.00000
      289.000      420.000      84.4700      758.941      2403.18      7133.44      33981.1      60947.1     -1.00000
      386.000      21.0000      16.3921      648.966      2015.21      6079.64      31374.8      60558.8     -1.00000
      524.000      212.000      37.2971      810.063      2433.95      7212.83      33737.1      59948.8     -1.00000
      990.000      458.000     -1.56772      480.112      1736.97      5313.63      29226.5      59974.9     -1.00000
      683.000      149.000      40.6377      616.339      2044.06      6142.19      30931.9      59758.3     -1.00000
      489.000      675.000      138.756      657.244      2070.96      6369.33      32090.4      60050.3     -1.00000
      991.000      946.000      184.794      593.414      1800.22      5646.39      31322.2      60026.4     -1.00000
      814.000      283.000      43.6963      685.534      2236.55      6613.17      32457.7      59553.2     -1.00000
      888.000      986.000      174.070      585.000      1742.48      5532.25      29729.3      59804.6     -1.00000
      674.000      645.000      127.888      743.150      2297.60      6952.61      34148.6      59252.9     -1.00000
      601.000      457.000      97.0099      606.584      1852.74      5559.93      29176.8      59004.8     -1.00000
      206.000      104.000      34.2097      634.589      1902.35      5714.99      29968.8      58225.5     -1.00000
      503.000      279.000      25.9922      520.359      1682.24      5282.96      28603.9      58231.6     -1.00000
      1014.00      619.000      96.6083      545.779      1694.43      5255.48      28882.3      58146.5     -1.00000
      908.000      592.000      107.065      597.606      1902.19      5893.09      30228.1      57999.4     -1.00000
