PDS_VERSION_ID         = PDS3
RECORD_TYPE            = STREAM
OBJECT                 = TEXT
  PUBLICATION_DATE     = 2017-12-05
  INTERCHANGE_FORMAT   = ASCII
  NOTE                 = "WAC hot pixel file for epoch 2014.3."
END_OBJECT             = TEXT
END

WAC hot pixel list. Lines 1 and 2 are column headings giving exposure time 
(sec) and gain state (e-/DN), respectively, of source dark images. Starting 
on line 3, first two columns indicate x and y value of hot pixel; columns 3 
through N-1 give median electron counts for each exposure bin, and last (Nth) 
column contains either the index of the exposure bin where saturation first 
occurs, or -1 if no saturation.

\begindata
      0.00000      0.00000      0.00000      10.0000      32.0000      100.000      560.000      1200.00
      0.00000      0.00000      11.7270      11.7270      27.6800      27.6800      27.6800      27.6800
      441.000      853.000      294.896      22029.5      69432.3      113526.      113521.      113520.      3.00000
      911.000      495.000      230.812      20934.3      67327.6      113534.      113523.      113517.      3.00000
      64.0000      68.0000      226.609      21836.2      63627.1      113530.      113513.      113531.      3.00000
      792.000      1007.00      297.167      20998.0      57034.2      111899.      113529.          NaN      3.00000
      554.000      174.000      116.996      12863.4      39099.9      101083.      113536.      113520.      4.00000
      833.000      328.000      94.8045      13005.7      39203.7      98241.2      113529.      113525.      4.00000
      511.000      126.000      90.9487      7723.93      24606.2      73405.6      113521.      113529.      4.00000
      413.000      578.000      156.628      9630.47      29580.5      75830.7      113520.      113523.      4.00000
      518.000      858.000      226.903      6567.27      22362.4      66327.0      113525.      113527.      4.00000
      365.000      612.000      154.416      6011.11      19553.6      59437.1      113529.      113516.      4.00000
      476.000      670.000      187.897      6185.56      20255.5      56618.8      113527.      113521.      4.00000
      685.000      585.000      163.700      7460.30      22679.9      58039.8      113531.      113525.      4.00000
      561.000      116.000      55.2555      6862.77      20663.4      55067.4      113533.      113517.      4.00000
      259.000      132.000      77.0117      5594.04      17834.0      52161.3      113528.      113521.      4.00000
      231.000      20.0000      47.9245      5479.08      16834.4      47540.6      113523.      113525.      4.00000
      962.000      403.000      88.7626      4914.72      15312.2      43477.0      113523.      113533.      4.00000
      648.000      531.000      117.941      3992.89      13319.3      40493.0      113530.      113517.      4.00000
      891.000      939.000      210.666      4309.40      14189.6      40890.6      113531.      113529.      4.00000
      804.000      646.000      151.582      4158.37      13224.2      37738.7      113525.      113520.      4.00000
      108.000      289.000      86.8684      4181.50      13248.6      38221.2      113534.      113522.      4.00000
      749.000      834.000      179.652      3517.41      11568.0      36011.7      113514.      113515.      4.00000
      947.000      51.0000      60.1346      3511.83      11331.7      34764.6      113527.      113516.      4.00000
      354.000      544.000      128.475      3273.35      11062.4      33722.2      113520.      113527.      4.00000
      162.000      1018.00      182.579      2632.77      9872.00      31330.7      111912.          NaN      4.00000
      707.000      655.000      147.803      3065.54      10442.1      31438.5      110750.      113523.      4.00000
      224.000      420.000      53.4255      2790.99      9602.34      30181.9      113527.      113530.      4.00000
      98.0000      390.000      32.8897      2760.25      9509.17      29898.1      113300.      113517.      4.00000
      474.000      416.000      55.2647      2787.18      9413.41      29135.3      113523.      113519.      4.00000
      91.0000      394.000      88.3844      2576.93      8549.05      27272.4      113531.      113514.      4.00000
      640.000      997.000      220.678      2351.26      8308.79      26834.3      113526.          NaN      4.00000
      594.000      21.0000      2.34706      2604.77      8580.34      26266.7      113520.      113527.      4.00000
      114.000      405.000      30.1621      2330.16      7896.63      24808.5      113519.      113530.      4.00000
      842.000      712.000      156.836      1931.69      7111.18      23495.2      113525.      113513.      4.00000
      343.000      726.000      159.515      1626.06      5696.88      19273.8      104817.      113531.      5.00000
      991.000      762.000      146.290      1706.20      5751.71      19697.7      104417.      113528.      5.00000
      44.0000      269.000      82.0960      2820.76      8872.80      26740.8      107853.      113525.      5.00000
      339.000      693.000      167.425      2412.90      8762.90      27334.7      108493.      113517.      5.00000
      666.000      481.000      83.7232      2856.36      9181.98      27450.7      105992.      113527.      5.00000
      87.0000      781.000      143.535      2514.23      8797.94      27084.2      105844.      113028.      5.00000
      633.000      123.000      18.7553      2927.16      9405.97      27607.4      105407.      113528.      5.00000
      663.000      382.000      59.2262      2081.68      6973.86      21861.2      102012.      113529.      5.00000
      615.000      629.000      126.490      1889.46      6626.57      22059.2      101491.      113522.      5.00000
      143.000      272.000      80.2922      2543.13      8221.90      25137.1      101705.      113516.      5.00000
      1000.00      61.0000      34.6917      2318.59      7561.85      22659.0      101728.      113528.      5.00000
      577.000      598.000      102.835      2128.47      7474.94      22952.0      99262.2      113525.      5.00000
      54.0000      76.0000      28.8370      2539.11      7966.39      23493.6      95887.0      113518.      5.00000
      570.000      705.000      141.067      1601.71      5670.86      18673.4      91776.7      113527.      5.00000
      815.000      104.000      8.99938      2137.08      6731.27      20396.8      92087.4      113528.      5.00000
      237.000      376.000      95.2770      1754.03      6168.12      19654.2      91158.1      113523.      5.00000
      787.000      651.000      118.354      1902.42      6341.32      19850.1      89650.9      113520.      5.00000
      826.000      799.000      177.190      1850.33      6313.61      19973.7      88998.2      113534.      5.00000
      372.000      333.000      53.9798      1622.33      5513.87      14976.7      85433.3      113515.      5.00000
      594.000      989.000      214.449      1862.22      6701.17      21656.5      86879.9          NaN     -1.00000
      630.000      1000.00      220.815      1615.25      5889.40      19164.3      86729.4          NaN     -1.00000
      55.0000      294.000      33.4182      3067.46      10447.3      30235.6      93767.8      113521.      5.00000
      519.000      951.000      173.467      1619.39      5690.12      18373.8      86769.7      113519.      5.00000
      188.000      899.000      169.796      1806.13      6335.52      20092.1      87628.5      113527.      5.00000
      906.000      454.000      74.7016      1784.66      6041.18      19004.8      86260.8      113517.      5.00000
      119.000      316.000      105.858      2322.63      7753.95      22977.1      87765.0      113520.      5.00000
      600.000      44.0000      61.0692      2757.56      8589.29      24652.5      88033.0      113531.      5.00000
      162.000      666.000      134.475      1528.34      5292.97      17527.1      82840.2      113530.      5.00000
      598.000      415.000      62.0857      1706.57      5657.18      18023.2      82809.7      113519.      5.00000
      733.000      26.0000     -9.05595      1133.66      3717.68      11402.8      78374.5      113527.      5.00000
      29.0000      605.000      121.808      1692.87      5388.79      17245.7      80992.2      112083.      5.00000
      78.0000      277.000      33.2259      1795.83      5858.95      18044.0      82250.7      113518.      5.00000
      971.000      821.000      165.968      1355.74      4873.52      15657.4      78377.9      113532.      5.00000
      27.0000      157.000      40.0447      1650.39      5402.33      16562.8      79238.0      113518.      5.00000
      486.000      334.000      82.7404      1541.00      5070.14      15650.5      78107.9      113519.      5.00000
      210.000      792.000      137.172      1337.28      4864.10      15908.2      77594.9      113522.      5.00000
      950.000      163.000     -1.63980      1408.59      4541.46      14707.1      76432.4      113523.      5.00000
      1012.00      563.000      88.3079      1217.68      4326.62      13976.3      74855.7      113531.      5.00000
      264.000      275.000      22.1682      2038.13      6554.85      19398.3      77729.4      113518.      5.00000
      339.000      789.000      154.965      1361.38      4638.74      14835.4      73740.1      113516.      5.00000
      518.000      314.000      48.3246      1661.47      5459.39      16531.6      75463.8      113520.      5.00000
      630.000      841.000      145.163      1291.77      4648.21      15134.2      73193.1      113529.      5.00000
      239.000      948.000      192.503      1154.25      4273.08      14610.9      71673.1      112760.      5.00000
      196.000      538.000      91.1726      1092.98      3911.74      12854.5      69711.6      113521.      5.00000
      597.000      612.000      118.537      2156.85      7171.83      21201.6      74566.8      109853.      5.00000
      293.000      642.000      123.383      1410.43      4902.48      15565.1      71107.8      113528.      5.00000
      554.000      175.000      74.3075      128.148      222.477      399.890      61837.3      113523.      5.00000
      176.000      663.000      138.853      1102.26      3897.81      13061.7      69567.4      113529.      5.00000
      588.000      255.000     -5.89757      1252.76      4109.94      13040.4      67543.4      113518.      5.00000
      358.000      225.000      63.4204      1153.12      3992.83      12311.0      67053.8      113529.      5.00000
      538.000      619.000      117.781      976.589      3558.02      11762.5      66325.2      113524.      5.00000
      547.000      370.000      69.5973      1656.62      5300.61      16390.7      68381.4      109298.      5.00000
      675.000      364.000      73.9537      1388.71      4668.58      14489.1      68073.9      113530.      5.00000
      232.000      277.000      21.1578      1329.97      4603.60      14087.6      67610.6      113518.      5.00000
      898.000      537.000      69.1484      1123.71      4060.25      13267.9      65210.5      112990.      5.00000
      139.000      210.000      40.2193      1506.74      4742.66      14367.4      66664.5      113062.      5.00000
      625.000      654.000      111.580      1166.36      4073.15      13235.7      64960.9      112343.      5.00000
      569.000      760.000      135.645      1327.10      4446.05      14324.4      66215.2      110919.      5.00000
      864.000      553.000      105.514      1041.47      3747.52      12269.6      63784.6      113516.      5.00000
      685.000      840.000      188.037      1105.03      3864.06      12421.5      62379.2      110259.      5.00000
      670.000      99.0000      34.8455      1338.86      4366.35      13376.5      63570.7      113402.      5.00000
      662.000      623.000      128.380      955.771      3322.12      11051.4      60496.8      113530.      5.00000
      353.000      817.000      172.957      926.357      3156.93      10856.8      59899.8      109924.      5.00000
      239.000      74.0000     -33.3528      1253.68      4253.10      12981.7      61258.5      108548.     -1.00000
      632.000      453.000      104.850      996.830      3574.09      11619.0      60236.0      108777.     -1.00000
      57.0000      393.000      30.9357      1125.51      3939.98      12381.3      60771.1      108606.     -1.00000
      278.000      928.000      175.662      985.602      3491.65      11740.4      60988.0      108322.     -1.00000
      31.0000      908.000      175.741      1401.05      4665.10      15289.5      72140.7      107732.     -1.00000
      131.000      429.000      33.6689      1032.12      3600.08      11663.0      58252.2      107113.     -1.00000
      83.0000      346.000      18.0619      1098.23      3717.26      11667.3      59436.2      106719.     -1.00000
      465.000      787.000      163.739      877.189      3118.81      10110.6      55094.8      104836.     -1.00000
      86.0000      392.000      76.9839      1286.79      4218.56      13356.4      62428.5      104202.     -1.00000
      912.000      647.000      138.135      734.913      2483.52      8474.56      49404.2      104074.     -1.00000
      198.000      682.000      142.186      2119.42      7026.92      20418.3      72192.9      103380.     -1.00000
      378.000      741.000      143.040      959.572      3378.84      11183.0      57370.3      103359.     -1.00000
      124.000      967.000      166.445      753.051      2592.72      8491.28      48834.2          NaN     -1.00000
      631.000      4.00000     -19.6630      1057.63      3674.59      11032.9      54892.2      102056.     -1.00000
      270.000      26.0000     -14.3122      1039.77      3534.02      10851.2      54822.0      101367.     -1.00000
      460.000      163.000      53.5084      951.472      3270.45      10210.4      52986.5      101511.     -1.00000
      398.000      742.000      160.389      1050.15      3680.86      11752.7      57683.2      101853.     -1.00000
      208.000      776.000      153.200      913.399      3176.05      10446.5      53826.8      101096.     -1.00000
      250.000      121.000      45.7395      1010.04      3343.93      10505.4      52653.2      99274.7     -1.00000
      238.000      409.000      22.0767      848.239      3124.81      10440.5      53549.0      99412.2     -1.00000
      393.000      618.000      149.577      927.878      3127.73      10285.3      53575.2      99377.7     -1.00000
      175.000      25.0000     -9.43762      723.714      2698.50      8373.54      46036.3      97850.6     -1.00000
      25.0000      584.000      85.1440      896.348      3082.31      10088.8      52674.3      98000.8     -1.00000
      907.000      991.000      198.690      964.888      3369.93      10809.2      46345.3          NaN     -1.00000
      996.000      806.000      140.861      834.398      2888.55      9565.15      50912.5      97690.4     -1.00000
      651.000      746.000      147.868      836.953      2921.21      9577.33      51633.2      96560.8     -1.00000
      511.000      127.000      65.0192      128.567      158.821      353.851      41786.2      94753.6     -1.00000
      540.000      139.000      60.3184      879.306      2900.63      8981.14      47776.9      94291.2     -1.00000
      95.0000      485.000      58.9186      798.659      2765.72      8810.37      47894.2      94404.4     -1.00000
      718.000      160.000      11.9556      897.018      3002.18      9381.57      49538.6      93749.1     -1.00000
      518.000      859.000      180.223      303.916      543.985      1055.53      40089.8      113532.      5.00000
      303.000      956.000      179.141      678.307      2362.71      8004.83      44562.1          NaN     -1.00000
      641.000      14.0000      30.0466      971.153      3161.09      9766.18      49705.8      93365.8     -1.00000
      44.0000      6.00000      26.6032      999.548      3453.21      10476.0      50959.0      93253.0     -1.00000
      204.000      490.000      83.8957      1139.39      3625.06      11552.1      54037.0      93605.2     -1.00000
      304.000      417.000      57.6962      821.573      2673.41      8501.79      46582.3      93011.7     -1.00000
      234.000      803.000      178.528      936.839      3239.45      10307.2      51051.4      90364.4     -1.00000
      511.000      125.000      5.32902      66.6175      163.337      280.058      2936.51      89564.2     -1.00000
      999.000      454.000      34.3812      715.021      2433.09      8020.53      44153.1      88978.5     -1.00000
      765.000      21.0000     -11.2912      793.415      2599.91      8404.05      44530.6      88552.4     -1.00000
      319.000      366.000      55.5148      1175.16      3858.16      11856.1      55071.9      88811.3     -1.00000
      689.000      775.000      155.953      654.521      2189.45      7520.14      42870.9      87991.9     -1.00000
      788.000      101.000      7.38305      796.648      2715.37      9025.75      45752.9      87150.5     -1.00000
      719.000      37.0000     -9.96212      769.765      2658.38      8420.50      44306.1      87013.7     -1.00000
      281.000      753.000      140.385      837.468      2953.37      9470.98      47892.3      87186.6     -1.00000
      302.000      482.000      96.3721      747.993      2454.48      8184.30      44004.1      86594.0     -1.00000
      55.0000      906.000      210.398      934.186      3298.75      10608.8      50115.9      85887.2     -1.00000
      907.000      84.0000      32.9503      988.483      3474.95      10705.9      49235.1      85096.9     -1.00000
      714.000      257.000      32.7561      686.955      2289.93      7623.74      42441.9      84670.1     -1.00000
      1016.00      482.000      40.3080      833.004      2653.71      8403.96      43700.3      84650.3     -1.00000
      348.000      584.000      129.353      684.366      2189.20      7342.26      41891.4      84647.7     -1.00000
      631.000      32.0000      28.5454      889.203      3074.14      9633.44      46906.5      83725.1     -1.00000
      856.000      823.000      149.434      806.486      2792.79      9778.75      47087.0      84168.0     -1.00000
      365.000      473.000      69.3524      800.757      2663.71      8613.07      44502.0      83323.3     -1.00000
      762.000      536.000      80.5422      843.112      2858.54      9442.55      47787.4      83220.5     -1.00000
      586.000      155.000      51.2868      960.728      3420.91      10343.4      47561.8      82845.5     -1.00000
      476.000      192.000     -6.08673      766.962      2658.83      8296.90      42751.1      82503.6     -1.00000
      775.000      945.000      172.797      680.795      2281.46      7613.32      42869.9      82732.8     -1.00000
      748.000      440.000      58.3683      827.678      2905.55      9232.40      45865.5      82184.2     -1.00000
      712.000      786.000      162.728      773.168      2706.92      8617.57      45442.0      82296.4     -1.00000
      117.000      400.000      15.7982      748.482      2463.82      8154.08      43038.2      81854.7     -1.00000
      175.000      26.0000     -35.6719      620.145      2155.86      6771.12      37944.6      81369.2     -1.00000
      235.000      338.000      3.51466      966.830      3393.44      10705.0      47851.5      80886.9     -1.00000
      682.000      926.000      173.623      698.115      2338.12      7874.41      42878.4      81023.0     -1.00000
      5.00000      342.000      30.9893      573.745      2007.42      6629.77      37668.8      80200.0     -1.00000
