PDS_VERSION_ID         = PDS3
RECORD_TYPE            = STREAM
OBJECT                 = TEXT
  PUBLICATION_DATE     = 2014-02-19
  INTERCHANGE_FORMAT   = ASCII
  NOTE                 = "WAC hot pixel file for epoch 2006.4."
END_OBJECT             = TEXT
END

WAC hot pixel list. Lines 1 and 2 are column headings giving exposure time 
(sec) and gain state (e-/DN), respectively, of source dark images. Starting 
on line 3, first two columns indicate x and y value of hot pixel; columns 3 
through N-1 give median electron counts for each exposure bin, and last (Nth) 
column contains either the index of the exposure bin where saturation first 
occurs, or -1 if no saturation.

\begindata
      0.00000      0.00000      0.00000      10.0000      32.0000      56.0000      100.000      220.000      560.000      1200.00
      0.00000      0.00000      27.6800      27.6800      27.6800      27.6800      27.6800      27.6800      27.6800      27.6800
      577.000      598.000      185.468      13785.2      42213.6      69822.1      108448.      111377.      111375.      111376.      5.00000
      554.000      174.000      189.453      13618.1      40319.7      65060.5      102165.      111380.      111375.      111373.      5.00000
      833.000      328.000      162.645      13728.6      40603.9      64508.4      98507.2      111376.      111381.      111371.      5.00000
      268.000      77.0000      75.3695      8828.27      26541.1      43727.1      70877.3      111376.      111379.      111371.      5.00000
      259.000      132.000      57.4667      6110.01      19178.6      32453.4      54704.4      102738.      111385.      111371.      6.00000
      685.000      585.000      137.128      7893.45      23557.6      37920.9      58953.2      98494.5      111381.      111371.      6.00000
      561.000      116.000      50.8345      6122.53      18479.8      30719.6      49871.0      88392.5      111381.      111372.      6.00000
      962.000      403.000      80.1860      5500.17      16870.8      28145.2      46238.1      82995.1      111379.      111371.      6.00000
      947.000      51.0000      23.2541      3701.42      11531.3      19893.3      34374.9      69668.5      111374.      111377.      6.00000
      365.000      612.000      89.3138      3536.21      11426.4      19523.3      33710.3      68299.3      111367.      111380.      6.00000
      224.000      420.000      58.7895      3231.21      10296.7      17992.4      31604.7      63015.1      111373.      111375.      6.00000
      947.000      587.000      62.3656      2745.36      8886.66      15695.2      27405.2      57182.0      111375.      111370.      6.00000
      971.000      821.000      85.8325      2535.80      8085.80      14060.9      24418.0      49995.6      104481.      111371.      7.00000
      615.000      629.000      65.1854      2287.13      7609.60      13290.5      23391.6      48983.5      102461.      111374.      7.00000
      577.000      599.000      80.2585      219.395      411.727      548.369      681.964      2093.65      71629.5      111376.      7.00000
      281.000      753.000      109.854      3350.90      10711.3      17742.1      30932.9      59168.0      105474.      111382.      7.00000
      906.000      454.000      56.1589      2325.36      7163.20      12389.9      21667.7      44480.2      93844.2      111378.      7.00000
      554.000      175.000      53.6787      115.532      226.608      318.797      373.370      895.722      64899.5      111372.      7.00000
      707.000      655.000      103.968      2872.12      9103.92      15646.8      26840.4      52461.4      97779.0      111380.      7.00000
      662.000      623.000      82.8420      1610.19      5038.45      8891.60      16056.3      35143.9      84894.4      111368.      7.00000
      630.000      1000.00      111.591      2047.30      6561.44      11477.9      19944.3      41264.7      86157.7      111377.      7.00000
      787.000      651.000      88.7890      2215.70      6421.75      12463.8      19113.1      40581.4      84519.0      111378.      7.00000
      679.000      289.000      28.2105      2020.31      6363.05      10922.4      18979.2      38761.3      82649.4      111368.      7.00000
      950.000      163.000      51.1452      1524.74      4944.76      8576.21      15085.2      32745.5      76661.1      111377.      7.00000
      27.0000      157.000      22.9680      1722.67      5392.10      9372.60      16409.9      34534.2      76868.2      111374.      7.00000
      196.000      915.000      103.801      1580.07      5189.13      9187.49      16388.8      34954.1      76888.0      111375.      7.00000
      518.000      314.000      51.3644      1807.46      5728.34      9860.01      17148.6      35402.8      76143.6      111374.      7.00000
      378.000      87.0000      27.7661      1941.35      6085.87      10482.0      18123.0      36603.6      76692.4      111374.      7.00000
      198.000      682.000      83.5901      2581.56      7998.38      13566.4      22944.8      43913.6      81459.7      111368.      7.00000
      631.000      4.00000      3.58819      1635.35      5108.46      8824.06      15360.8      32067.8      72041.4      111375.      7.00000
      1007.00      848.000      57.7634      1442.71      4488.41      7905.94      14176.6      30834.1      71365.3      111376.      7.00000
      822.000      465.000      80.4072      1514.26      4753.23      8356.53      14751.2      30958.1      69746.8      111372.      7.00000
      372.000      333.000      53.7183      1225.07      3773.57      6550.35      11667.7      25420.2      65787.9      111371.      7.00000
      293.000      642.000      82.6868      1583.18      5141.76      8998.91      15789.4      32782.4      69999.9      111372.      7.00000
      569.000      760.000      81.6352      1610.06      4957.56      8611.88      15026.4      31325.4      66990.7      110233.      7.00000
      625.000      654.000      83.0115      1407.63      4449.53      7842.97      13989.2      29308.8      65583.5      111380.      7.00000
      139.000      210.000      28.1013      1578.64      4814.29      8195.34      14330.0      29524.5      65396.0      111375.      7.00000
      519.000      951.000      87.5703      1232.44      4013.44      7080.70      12587.6      27332.6      64178.6      111378.      7.00000
      427.000      135.000      31.5166      1190.63      3781.42      6522.52      11686.5      25095.4      61501.5      111369.      7.00000
      690.000      144.000      51.4288      1612.70      5169.11      8883.28      15486.3      31713.2      67196.2      108363.     -1.00000
      587.000      354.000      50.7373      1391.96      4323.74      7502.88      13117.1      27645.0      61907.2      107579.     -1.00000
      22.0000      494.000      61.5141      1191.51      3692.58      6459.67      11567.6      24957.9      60518.7      107169.     -1.00000
      547.000      370.000      43.8336      1751.80      5449.34      9460.06      16317.4      32993.4      67619.5      107007.     -1.00000
      856.000      823.000      89.4296      1449.09      4706.44      8437.49      14883.6      30607.6      64816.8      107467.     -1.00000
      31.0000      908.000      74.6129      1606.54      5187.17      9088.19      16218.5      33846.9      74007.8      106910.     -1.00000
      378.000      741.000      106.203      1284.12      4073.10      7140.53      12706.8      26803.5      60805.5      106221.     -1.00000
      828.000      871.000      106.108      1396.06      4391.05      7582.13      13354.6      27861.9      62002.5      105830.     -1.00000
      788.000      101.000      32.2077      1248.30      3888.08      6857.85      11984.2      25846.4      58772.3      104399.     -1.00000
      208.000      776.000      102.040      1420.00      4291.61      7540.16      13178.9      27510.8      60944.4      103849.     -1.00000
      107.000      183.000      20.6024      1496.25      4695.79      8022.09      13094.9      26807.7      58921.2      101107.     -1.00000
      204.000      490.000      60.3681      1571.48      4679.49      7996.18      13991.3      22752.5      50956.0      100488.     -1.00000
      460.000      163.000      23.4652      1136.47      3437.61      6030.20      7667.81      22710.3      53495.7      100088.     -1.00000
      270.000      26.0000      25.6934      1079.87      3499.45      6067.46      10611.2      22716.9      53989.7      99064.2     -1.00000
      64.0000      541.000      50.0704      1323.67      4152.82      7368.71      12999.5      26655.6      59039.5      99066.5     -1.00000
      705.000      195.000      23.3343      1252.34      3898.18      6749.31      11832.9      24648.9      55632.2      98529.0     -1.00000
      176.000      663.000      62.1556      999.968      3131.95      5423.21      9626.23      21092.1      51118.9      96392.2     -1.00000
      258.000      770.000      85.1058      1627.36      5177.17      8902.01      15404.2      30727.7      61407.3      95156.0     -1.00000
      695.000      723.000      87.8511      999.081      3229.70      5628.19      9846.17      21877.5      51755.0      94203.0     -1.00000
      54.0000      76.0000     -5.86904      1408.45      4394.91      7600.17      13133.5      26566.7      56260.8      93517.7     -1.00000
      44.0000      6.00000      19.4757      1143.25      3539.19      6116.07      10631.2      22574.3      51608.6      93442.9     -1.00000
      354.000      280.000      28.8336      853.789      2659.00      4568.74      8131.27      17829.9      44522.7      93460.0     -1.00000
      718.000      160.000      3.39057      1026.18      3130.03      5605.82      9745.74      21001.7      49917.3      92833.5     -1.00000
      896.000      73.0000      26.8569      1098.42      3433.25      5881.89      10461.3      21968.2      49780.3      88688.9     -1.00000
      995.000      339.000      32.0625      1192.60      3739.61      6419.49      11252.0      23432.1      51278.3      87554.3     -1.00000
      1000.00      61.0000      2.11828      861.644      2785.00      4841.86      8564.78      18491.2      44187.1      86020.5     -1.00000
      689.000      775.000      77.6884      809.932      2517.17      4470.47      7878.63      17217.0      42609.5      86231.8     -1.00000
      999.000      454.000      56.1589      835.701      2569.15      4540.12      8105.63      17326.4      43028.2      85816.2     -1.00000
      95.0000      485.000      58.9557      823.685      2607.34      4535.92      7959.11      17297.1      42463.6      84817.5     -1.00000
      358.000      225.000      39.4348      798.118      2508.26      4283.48      7666.42      16626.2      41071.1      83249.8     -1.00000
      602.000      231.000      23.1720      916.783      2791.31      4802.88      8457.82      18113.5      42929.5      82806.8     -1.00000
      631.000      32.0000      47.5246      1046.94      3250.77      5633.93      9858.05      20731.2      46860.8      82258.4     -1.00000
      668.000      920.000      114.142      864.274      2645.95      4668.39      8419.96      18598.3      44167.6      83020.9     -1.00000
      750.000      336.000      52.2696      842.572      2647.72      4647.88      8033.82      17516.1      42431.5      81693.3     -1.00000
      426.000      434.000      33.1255      804.167      2350.76      4179.17      7440.77      16264.0      40185.6      80816.2     -1.00000
      860.000      925.000      78.5082      965.074      2924.65      5053.63      8905.19      18968.4      44297.2      80815.6     -1.00000
      554.000      173.000      4.22285      106.244      182.203      208.906      268.265      399.716      10836.4      80083.8     -1.00000
      762.000      536.000      46.6761      1031.66      2815.57      4943.37      8935.40      19030.9      45897.6      80211.0     -1.00000
      845.000      827.000      89.9509      855.047      2631.47      4636.02      8411.85      18323.8      43908.5      80403.6     -1.00000
      117.000      400.000      57.9715      800.637      2482.82      4288.88      7676.21      16632.4      40320.9      78792.8     -1.00000
      293.000      379.000      54.4133      984.831      2996.95      5162.03      9045.59      19157.8      43468.8      77646.7     -1.00000
      193.000      706.000      88.5926      834.161      2565.26      4366.63      7880.69      16904.1      40641.0      77728.9     -1.00000
      373.000      677.000      72.9118      775.523      2326.88      4034.06      7199.02      15859.3      39131.5      77233.7     -1.00000
      486.000      353.000      30.8232      918.158      2757.73      4677.96      8243.59      17399.9      40994.0      76726.7     -1.00000
      842.000      225.000      48.1605      798.118      2538.76      4347.27      7563.70      16544.8      41610.3      76204.6     -1.00000
      577.000      597.000      52.3225      138.435      182.620      235.869      275.838      351.961      13200.0      76383.6     -1.00000
      349.000      949.000      104.651      860.439      2684.54      4690.53      8387.37      17788.8      41595.7      76562.8     -1.00000
      149.000      763.000      84.9608      823.793      2615.83      4642.31      8295.61      17754.7      41403.1      76394.9     -1.00000
      806.000      136.000      6.29707      742.922      2272.12      3904.50      6935.78      15023.2      37414.2      75397.0     -1.00000
      313.000      809.000      81.4240      832.486      2487.80      4227.83      7464.31      16566.2      39261.4      74364.3     -1.00000
      113.000      103.000      18.4095      944.958      2844.69      4841.67      8404.93      17572.4      40123.3      72655.5     -1.00000
      800.000      542.000      50.3287      803.085      2509.15      4341.31      7633.60      16407.9      38641.7      72385.2     -1.00000
      268.000      78.0000      30.7874      87.0735      137.900      181.860      274.333      370.145      25100.2      111371.      7.00000
      735.000      955.000      112.502      803.129      2403.96      4168.89      7386.93      15986.2      38025.4      72195.6     -1.00000
      894.000      781.000      70.8926      855.287      2464.39      4367.29      7720.09      16657.8      38943.4      71436.2     -1.00000
      536.000      286.000      27.7572      793.769      2379.76      4202.93      7347.28      15626.6      37209.1      71004.8     -1.00000
      626.000      890.000      97.6628      779.504      2270.67      3973.23      7100.04      15715.7      37632.0      71220.5     -1.00000
      880.000      959.000      89.5613      638.241      1901.98      3444.28      6074.44      13610.0      34322.3      70956.3     -1.00000
      597.000      612.000      61.6338      1045.84      3219.47      5393.29      9465.25      19432.2      41142.7      70536.4     -1.00000
      833.000      329.000      48.0694      222.274      307.869      373.592      540.377      867.819      34709.2      69076.2     -1.00000
      493.000      874.000      83.3246      852.446      2481.74      4231.27      7536.77      16108.8      38000.5      69181.0     -1.00000
      97.0000      627.000      59.9641      781.179      2448.24      4230.53      7356.63      15862.3      37223.9      68688.6     -1.00000
      431.000      741.000      83.3086      753.249      2154.18      3787.71      6756.38      14555.1      35156.6      68749.5     -1.00000
      497.000      390.000      25.9452      765.526      2190.79      3730.17      6682.60      14296.0      36277.0      68426.3     -1.00000
      333.000      901.000      79.3905      654.666      2068.03      3641.36      6494.76      13980.2      34290.7      67526.9     -1.00000
      585.000      354.000      34.3149      684.118      1997.24      3433.99      6145.12      13337.8      32840.1      66577.9     -1.00000
      677.000      370.000      52.6787      666.673      2018.96      3570.83      6185.95      13425.6      33125.5      66167.0     -1.00000
      214.000      936.000      89.7995      644.908      1845.32      3299.79      5938.05      13419.7      33103.3      66036.6     -1.00000
      813.000      18.0000      21.6438      801.611      2433.22      4218.90      7252.19      15274.9      35342.3      65127.3     -1.00000
      278.000      187.000      22.6900      715.086      2106.79      3642.32      6306.82      13772.9      31935.5      64639.6     -1.00000
      990.000      458.000      55.8085      550.676      1888.30      3195.56      5812.36      12660.2      31736.3      64429.7     -1.00000
      149.000      871.000      99.6182      668.889      2099.99      3511.47      6185.45      13668.6      32988.9      64088.7     -1.00000
      356.000      70.0000      30.2279      687.630      2098.06      3811.22      6396.98      13746.8      33252.9      63255.7     -1.00000
      1002.00      897.000      73.8227      688.895      2106.62      3568.42      6333.62      13864.5      33514.9      63474.1     -1.00000
      289.000      420.000      45.9862      827.344      2475.02      4244.19      7431.96      15680.1      35225.4      63116.5     -1.00000
      1014.00      619.000      49.3434      612.445      1846.31      3329.31      5772.11      12700.9      31098.9      62710.8     -1.00000
      971.000      755.000      79.4042      665.740      1844.40      3198.90      5632.69      12231.2      30668.5      61705.7     -1.00000
      909.000      161.000      26.3326      281.952      1955.30      3290.12      5527.85      12145.8      29836.3      61158.5     -1.00000
      933.000      495.000      48.7214      630.881      1894.40      3338.48      5783.06      12603.4      30462.6      61256.6     -1.00000
      674.000      645.000      57.8313      832.085      2420.46      4199.94      7442.37      15791.7      35389.6      60760.8     -1.00000
      643.000      899.000      88.0858      602.768      1615.47      2763.42      5035.26      10830.5      28673.9      60501.4     -1.00000
      888.000      986.000      95.9236      639.547      1824.51      3201.46      5530.80      12663.3      30298.6      60548.0     -1.00000
      878.000      293.000      24.3648      640.882      1908.14      3297.18      5745.12      12309.6      30089.8      60083.4     -1.00000
      683.000      149.000      50.0211      639.201      2077.65      3450.34      6104.64      13037.7      30823.6      59805.8     -1.00000
      783.000      337.000      56.9364      674.065      1906.18      3294.99      5697.87      12364.5      29938.4      59630.1     -1.00000
      952.000      695.000      57.0003      635.037      1745.52      3007.95      5366.93      11678.2      29384.3      59522.6     -1.00000
      206.000      104.000      26.8535      662.216      1985.30      3345.66      5941.37      12755.8      30572.4      59012.3     -1.00000
      94.0000      466.000      27.9774      620.859      1877.94      3206.11      5713.04      12426.2      30083.7      59034.2     -1.00000
      503.000      279.000      25.3250      560.919      1761.46      3036.39      5445.74      11596.2      28777.8      57605.4     -1.00000
      449.000      680.000      75.6513      637.823      1768.82      3094.38      5574.63      12290.5      29665.8      57480.0     -1.00000
      911.000      478.000      52.1683      655.027      1994.08      3429.59      5950.90      12736.6      30094.3      57233.2     -1.00000
      899.000      837.000      80.3166      576.120      1706.14      2909.11      5296.53      11482.0      28511.6      57416.3     -1.00000
      601.000      457.000      46.8179      608.482      1827.28      3194.64      5575.40      11439.0      28030.5      56913.7     -1.00000
