PDS_VERSION_ID         = PDS3
RECORD_TYPE            = STREAM
OBJECT                 = TEXT
  PUBLICATION_DATE     = 2014-02-19
  INTERCHANGE_FORMAT   = ASCII
  NOTE                 = "WAC hot pixel file for epoch 2009.0."
END_OBJECT             = TEXT
END

WAC hot pixel list. Lines 1 and 2 are column headings giving exposure time 
(sec) and gain state (e-/DN), respectively, of source dark images. Starting 
on line 3, first two columns indicate x and y value of hot pixel; columns 3 
through N-1 give median electron counts for each exposure bin, and last (Nth) 
column contains either the index of the exposure bin where saturation first 
occurs, or -1 if no saturation.

\begindata
      0.00000      0.00000      0.00000      10.0000      32.0000      100.000      320.000      560.000      1200.00
      0.00000      0.00000      11.7270      11.7270      27.6800      27.6800      27.6800      27.6800      27.6800
      518.000      858.000      192.067      11236.6      35772.8      98637.7      111352.      111349.      111347.      4.00000
      554.000      174.000      139.191      13109.4      39266.0      99677.4      111341.      111350.      111340.      4.00000
      833.000      328.000      148.926      13462.4      39938.9      97768.8      111344.      111340.      111347.      4.00000
      792.000      1007.00      198.572      12962.2      38903.8      96438.7      111347.      111346.      111343.      4.00000
      413.000      578.000      127.716      7678.16      23550.8      61571.0      111355.      111341.      111349.      4.00000
      577.000      598.000      112.285      6261.71      20120.0      58331.6      111353.      111343.      111344.      4.00000
      685.000      585.000      141.744      7473.72      22442.7      56767.9      111348.      111348.      111348.      4.00000
      259.000      132.000      80.4478      5680.04      18084.3      52058.6      111343.      111354.      111339.      4.00000
      511.000      126.000      44.0336      5261.47      16793.3      50838.7      111352.      111344.      111351.      4.00000
      561.000      116.000      64.0619      6167.19      18802.7      50590.1      111340.      111346.      111337.      4.00000
      640.000      997.000      109.401      3768.00      12781.7      39602.7      106700.      111352.      111354.      5.00000
      947.000      51.0000      59.2351      3815.09      12090.2      36741.9      103290.      111351.      111337.      5.00000
      162.000      1018.00      124.508      3983.26      13835.5      42064.4      104747.      111349.      111350.      5.00000
      339.000      693.000      72.2236      4287.36      14112.3      41897.2      104012.      111350.      111341.      5.00000
      962.000      403.000      57.3077      5119.49      16091.1      44469.1      102388.      111350.      111338.      5.00000
      365.000      612.000      85.9745      3539.36      10904.6      33265.4      91365.4      111346.      111338.      5.00000
      9.00000      297.000      86.8893      3326.04      10568.8      31693.3      83664.0      109472.      111340.      5.00000
      224.000      420.000      80.1101      3020.89      9739.34      29803.9      82012.5      111351.      111342.      5.00000
      310.000      842.000      96.5372      3520.04      10072.5      31734.7      82309.7      111340.      111345.      5.00000
      232.000      277.000      77.8549      3697.24      11637.3      33405.7      83035.9      111351.      111345.      5.00000
      518.000      859.000      116.258      334.098      646.484      1104.55      25379.3      93910.0      111345.      6.00000
      663.000      382.000      105.180      2633.29      8435.47      25465.2      71552.1      109379.      111340.      5.00000
      554.000      175.000      63.0809      100.251      249.400      402.653      6278.91      60608.9      111337.      6.00000
      372.000      333.000      78.5848      1901.63      6267.72      19640.9      60745.5      99861.6      111351.      6.00000
      210.000      792.000      104.974      2213.29      7448.77      23158.6      66313.7      102702.      111348.      6.00000
      615.000      629.000      62.8242      2182.58      7391.37      23169.5      66619.3      102006.      111350.      6.00000
      971.000      821.000      83.4445      2313.95      7684.31      24053.5      67719.6      102915.      111346.      6.00000
      231.000      20.0000      29.4456      2807.55      8900.24      25964.5      69993.1      103917.      111352.      6.00000
      119.000      316.000      64.3094      3162.83      10077.7      29109.1      74106.6      105840.      111347.      6.00000
      666.000      481.000      42.8003      3056.00      9564.86      28115.5      72733.1      104768.      111352.      6.00000
      898.000      537.000      94.5303      2305.65      7721.47      23251.3      64617.2      97665.8      111351.      6.00000
      707.000      655.000      77.4723      3341.56      10978.1      32100.5      80514.2      109161.      111341.      6.00000
      54.0000      76.0000      33.1594      2901.93      8915.52      25951.2      67865.1      99393.8      111343.      6.00000
      906.000      454.000      27.4554      2247.35      7199.80      21824.2      62291.0      95416.4      111350.      6.00000
      787.000      651.000      116.620      1976.57      5726.10      18857.5      55219.4      89735.4      111342.      6.00000
      826.000      799.000      70.1569      2355.04      7777.63      23528.3      64547.9      96590.1      111336.      6.00000
      281.000      753.000      123.056      3276.31      9463.14      28547.3      70964.4      100757.      111349.      6.00000
      842.000      712.000      27.1428      1521.71      5090.44      16358.4      51228.3      86357.5      111348.      6.00000
      570.000      705.000      106.772      1632.17      5445.89      17359.6      52274.1      83558.8      111349.      6.00000
      662.000      623.000      86.2709      1447.02      4621.76      14897.5      47383.6      79849.8      111348.      6.00000
      781.000      619.000      61.5097      1830.76      6207.19      19420.2      56337.6      86310.8      111339.      6.00000
      630.000      1000.00      92.7540      1863.17      6267.29      19843.0      56181.1      86337.5      111352.      6.00000
      775.000      945.000      88.8625      1900.59      6265.74      19409.0      55845.3      85653.7      111339.      6.00000
      721.000      420.000      105.075      1712.98      5593.68      17042.9      50557.9      80372.2      111342.      6.00000
      950.000      163.000      54.9148      1586.67      4806.28      14923.2      46362.9      76433.8      111345.      6.00000
      27.0000      157.000      16.9650      1695.88      5467.05      16670.1      48953.8      77969.2      111338.      6.00000
      78.0000      277.000      1.62971      1863.25      5860.48      17755.5      50175.9      78080.5      111345.      6.00000
      196.000      915.000      67.2798      1422.23      4954.93      16000.7      47967.0      76090.7      111346.      6.00000
      518.000      314.000      69.6237      1815.93      5712.47      16872.2      48370.9      75645.7      111354.      6.00000
      196.000      538.000      44.6397      1255.74      4211.31      13522.5      42288.5      70263.0      111353.      6.00000
      57.0000      393.000      70.3098      1499.51      4835.99      14919.5      44393.3      71669.8      111352.      6.00000
      996.000      806.000      76.3793      1489.86      4891.62      15328.7      45283.3      72354.7      111346.      6.00000
      385.000      611.000      74.1454      1566.25      5151.55      15878.6      46079.8      72756.7      111341.      6.00000
      822.000      465.000      66.9425      1473.08      4808.48      14490.0      43407.4      69795.0      111340.      6.00000
      293.000      642.000      113.488      1496.79      5004.62      15423.2      44499.3      69539.0      111351.      6.00000
      213.000      194.000      60.9118      1544.93      4924.42      14854.1      43164.6      68236.0      111338.      6.00000
      378.000      87.0000     -7.01714      1674.39      5341.32      15782.6      44456.1      68913.4      111346.      6.00000
      139.000      210.000      56.6585      1578.72      4970.92      14659.1      42401.7      67089.9      111349.      6.00000
      625.000      654.000      62.0002      1288.28      4361.24      13687.5      40678.8      65419.3      111187.      6.00000
      909.000      125.000      49.8685      1457.56      4634.49      14016.9      41408.2      65720.3      111352.      6.00000
      176.000      663.000      43.4381      1208.31      3928.09      12176.4      38491.2      63791.5      110386.      6.00000
      569.000      760.000      38.9475      1510.17      4811.21      14981.0      43317.8      67328.8      110373.      6.00000
      982.000      15.0000      21.2159      1731.03      5369.47      15603.1      43301.4      66580.1      109712.      6.00000
      300.000      655.000      37.5606      1121.26      3583.98      11869.8      39024.2      63502.0      111341.      6.00000
      91.0000      394.000      26.6756      1143.39      3728.14      11705.4      36239.6      60646.7      109686.      6.00000
      631.000      4.00000      23.9207      1342.91      4234.20      12702.4      38163.7      61587.6      111095.      6.00000
      1000.00      61.0000      22.9401      1187.09      3858.82      11887.8      35837.7      59549.6      111354.      6.00000
      494.000      322.000      23.8396      1126.56      3630.07      11173.4      35001.0      58847.0      110603.      6.00000
      1007.00      108.000      18.9456      1427.71      4574.53      13928.8      41022.6      65392.9      108531.     -1.00000
      856.000      823.000      105.509      1321.87      4702.81      14747.2      42240.2      65556.2      108196.     -1.00000
      268.000      77.0000      39.8353      2288.11      6996.48      19844.2      49916.1      71724.5      106475.     -1.00000
      714.000      257.000      10.0825      1056.63      3484.36      10884.6      34145.8      56979.8      106634.     -1.00000
      788.000      101.000      39.0743      1228.22      3941.79      12558.4      36647.8      60219.6      106013.     -1.00000
      31.0000      908.000      70.2694      1523.92      4940.96      15749.8      46847.7      73158.4      106627.     -1.00000
      547.000      370.000      31.8053      1651.87      5219.10      15636.7      43401.7      65742.5      105444.     -1.00000
      198.000      682.000      33.0553      2292.21      7339.24      20878.9      51691.6      72435.6      103154.     -1.00000
      394.000      73.0000      26.8490      1014.47      3338.05      10157.0      31643.3      53027.2      100790.     -1.00000
      378.000      741.000      101.464      1107.27      3667.91      11536.2      34991.2      56874.4      100991.     -1.00000
      270.000      26.0000      21.7152      1144.57      3523.89      10778.9      32904.8      54080.5      99702.2     -1.00000
      590.000      545.000      101.001      1420.29      4551.80      13720.8      39325.6      60941.9      100193.     -1.00000
      705.000      195.000      61.4271      1223.68      3906.40      11609.1      34406.3      55435.2      98302.8     -1.00000
      204.000      490.000      68.3951      1302.28      4098.34      12462.3      36159.9      56799.1      96929.0     -1.00000
      131.000      429.000      91.6289      1044.65      3358.85      10355.8      31605.2      52163.3      96545.7     -1.00000
      679.000      128.000      35.9467      1160.36      3742.25      11282.7      34075.3      55028.3      95985.0     -1.00000
      83.0000      346.000      91.4306      1023.89      3263.92      9944.12      31190.1      51710.2      96086.4     -1.00000
      44.0000      6.00000      20.8798      1177.33      3635.70      11066.8      32568.9      52798.2      95155.3     -1.00000
      193.000      706.000      111.153      1013.99      3191.84      10247.5      31596.1      52781.1      95798.0     -1.00000
      169.000      539.000      110.299      1054.00      3387.15      10376.9      31576.9      52088.6      95492.3     -1.00000
      519.000      951.000      129.024      1031.35      3232.79      10268.2      31585.6      51794.5      95499.8     -1.00000
      107.000      183.000      21.3999      1160.11      3762.97      11451.3      33381.2      53238.3      93947.8     -1.00000
      348.000      584.000      60.7307      886.048      2795.63      8727.00      27476.5      46770.9      93648.6     -1.00000
      718.000      160.000      39.6406      963.339      3156.60      9596.09      29546.0      49775.2      93069.4     -1.00000
      49.0000      1003.00      94.7412      950.754      3024.25      9461.58      29835.2      50174.1      92715.0     -1.00000
      828.000      871.000      65.4050      1026.67      3262.54      10185.6      30600.3      50090.5      90061.8     -1.00000
      349.000      949.000      73.3102      965.719      3269.63      10256.6      31017.4      50347.2      88759.7     -1.00000
      117.000      400.000      80.6454      879.025      2881.13      8975.61      27668.7      46536.2      88057.0     -1.00000
      208.000      776.000      57.5728      1017.18      3025.70      9649.08      29231.0      48316.9      87885.2     -1.00000
      258.000      770.000      135.252      1184.70      3967.84      12159.1      34703.4      53356.7      87706.2     -1.00000
      999.000      454.000      10.8518      779.704      2566.10      7985.57      25115.2      42920.6      86119.5     -1.00000
      95.0000      485.000      17.5452      824.070      2656.04      8211.96      25684.9      43171.8      84851.0     -1.00000
      357.000      203.000      69.1073      985.216      3095.50      9445.92      28560.2      46933.4      84559.3     -1.00000
      689.000      775.000      105.857      733.922      2414.95      7551.81      24278.1      41983.8      84690.8     -1.00000
      911.000      112.000      20.9219      757.121      2464.55      7632.98      24067.2      40824.1      83682.0     -1.00000
      382.000      814.000      72.2535      898.790      2853.20      9553.98      29353.9      47413.2      83793.1     -1.00000
      327.000      876.000      104.337      846.576      2683.15      8326.61      26153.9      43896.1      83465.7     -1.00000
      631.000      32.0000      16.0719      976.465      3143.23      9623.58      28672.5      46522.7      82464.0     -1.00000
      618.000      759.000      54.4382      752.118      2270.17      7299.01      23723.9      41160.1      83041.0     -1.00000
      476.000      192.000      29.2714      887.652      2869.56      8713.82      26369.6      43840.4      82414.4     -1.00000
      748.000      440.000      44.5387      1044.46      3378.65      10254.5      30003.0      47785.8      82222.5     -1.00000
      762.000      536.000      91.6170      896.425      2952.68      9504.38      29534.7      46958.8      81402.0     -1.00000
      602.000      231.000      28.7949      899.288      2659.87      8182.48      25029.5      42191.0      80529.6     -1.00000
      293.000      379.000      10.8807      867.724      2532.87      8030.60      24636.1      41184.6      80425.5     -1.00000
      426.000      434.000      17.3222      732.050      2303.54      7184.06      22968.1      39741.1      80211.2     -1.00000
      834.000      993.000      75.2201      997.514      3278.66      9882.23      29342.0      46582.5      80633.4     -1.00000
      719.000      37.0000     -5.51704      782.021      2513.20      7604.56      23648.0      40252.0      78874.4     -1.00000
      845.000      827.000      93.3312      785.060      2487.66      7970.39      25722.7      42917.8      79052.5     -1.00000
      860.000      925.000      82.3710      826.135      2596.75      8230.90      25456.0      42330.8      78334.5     -1.00000
      518.000      857.000      61.9292      97.0251      161.972      266.500      1324.40      13590.4      77667.3     -1.00000
      776.000      274.000      37.7743      767.379      2329.71      7110.32      22009.5      37791.1      77038.2     -1.00000
      486.000      353.000      23.9671      819.284      2704.15      8079.24      24369.8      40787.6      76904.7     -1.00000
      149.000      763.000      102.785      815.597      2570.23      8205.10      24852.8      41102.5      76386.0     -1.00000
      475.000      445.000      74.9235      865.901      2313.43      7212.95      22719.4      38523.6      75730.8     -1.00000
      298.000      451.000      22.3129      868.958      2812.50      8745.15      26442.2      42307.1      75460.9     -1.00000
      113.000      103.000      28.0125      944.642      2835.23      8494.09      24737.1      40197.6      72887.2     -1.00000
      577.000      599.000      112.125      157.333      375.715      578.793      995.881      5574.62      72769.8     -1.00000
      554.000      173.000      14.3610      87.4925      177.531      303.276      511.883      7827.83      72341.1     -1.00000
      794.000      636.000      86.4161      634.073      2090.79      6553.62      20948.8      36104.1      72505.4     -1.00000
      899.000      837.000      58.0342      707.469      2223.90      6846.42      21698.8      37028.9      72442.0     -1.00000
      264.000      275.000      53.9599      909.184      2840.44      8506.76      25037.2      40397.4      71929.3     -1.00000
      683.000      853.000      49.4233      758.069      2336.13      7166.95      22247.8      37467.7      72102.0     -1.00000
      894.000      781.000      37.6722      789.253      2370.52      7479.95      23432.4      38886.9      71875.0     -1.00000
      511.000      127.000      54.5108      66.7696      202.988      363.754      548.785      5160.98      70273.1     -1.00000
      740.000      184.000      18.8664      740.593      2353.93      7136.60      21810.2      36742.9      70122.1     -1.00000
      812.000      397.000      74.6145      745.407      2365.15      7204.72      21884.9      36675.9      70216.2     -1.00000
      813.000      18.0000      19.1204      804.994      2554.06      7584.51      22884.2      37671.2      69790.6     -1.00000
      626.000      890.000      81.8721      673.865      2184.53      6880.56      21796.5      36956.8      70358.8     -1.00000
      358.000      225.000      40.1180      667.246      2062.06      6287.37      19480.5      33629.2      69736.0     -1.00000
      449.000      291.000      65.6163      766.542      2483.33      7436.28      22429.7      37127.8      69652.5     -1.00000
      750.000      336.000      30.6492      688.198      2254.31      7093.78      21943.5      36703.5      69405.7     -1.00000
      880.000      959.000      77.6673      603.495      1754.36      5742.81      19154.9      33242.5      69829.9     -1.00000
      991.000      946.000      77.1171      681.282      2112.20      6762.37      21654.8      36584.8      69801.4     -1.00000
      833.000      329.000      69.3551      241.403      407.312      678.367      2176.02      35024.6      69326.7     -1.00000
      97.0000      627.000      56.8526      788.981      2334.98      7227.66      22226.2      36667.7      68629.1     -1.00000
      912.000      647.000      46.0226      611.986      1821.35      5849.21      18600.0      32569.6      68544.0     -1.00000
      552.000      971.000      53.1343      585.344      1746.03      5598.87      18179.3      31865.2      68560.9     -1.00000
