PDS_VERSION_ID         = PDS3
RECORD_TYPE            = STREAM
OBJECT                 = TEXT
  PUBLICATION_DATE     = 2014-02-19
  INTERCHANGE_FORMAT   = ASCII
  NOTE                 = "WAC hot pixel file for epoch 2005.8."
END_OBJECT             = TEXT
END

WAC hot pixel list. Lines 1 and 2 are column headings giving exposure time 
(sec) and gain state (e-/DN), respectively, of source dark images. Starting 
on line 3, first two columns indicate x and y value of hot pixel; columns 3 
through N-1 give median electron counts for each exposure bin, and last (Nth) 
column contains either the index of the exposure bin where saturation first 
occurs, or -1 if no saturation.

\begindata
      0.00000      0.00000      0.00000      1.00000      10.0000      32.0000      56.0000      100.000      320.000      560.000      1200.00
      0.00000      0.00000      11.7270      27.6800      11.7270      27.6800      27.6800      27.6800      27.6800      27.6800      27.6800
      554.000      857.000      212.777      50219.0      240.140      257.255      260.601      324.152      405.668      490.932      524.275     -1.00000
      833.000      1011.00      222.877      51056.3      246.545      225.903      208.569      288.778      378.227      393.094      454.335     -1.00000
      268.000      760.000      169.123      34182.5      191.469      219.326      253.712      275.213      342.186      429.989      458.279     -1.00000
      259.000      815.000      176.188      25919.0      229.355      229.476      240.906      302.781      398.266      446.461      500.923     -1.00000
      561.000      799.000      188.956      23649.7      230.975      206.396      223.486      275.527      405.481      469.685      516.510     -1.00000
      577.000      598.000      248.051      1424.74      13506.1      41367.1      67848.3      107365.      111386.      111379.      111379.      6.00000
      554.000      174.000      145.137      1458.69      13297.2      40227.1      66276.1      101694.      111377.      111370.      111380.      6.00000
      833.000      328.000      199.437      1563.84      13767.7      40619.9      64745.2      98863.6      111374.      111371.      111379.      6.00000
      631.000      687.000      158.976      6624.56      170.998      180.882      183.576      289.133      362.530      437.255      475.634     -1.00000
      378.000      770.000      166.102      6988.97      186.862      195.726      202.154      271.893      396.665      438.928      459.324     -1.00000
      679.000      972.000      215.813      8261.27      222.505      211.587      158.224      322.940      361.478      400.808      454.216     -1.00000
      27.0000      840.000      165.794      7258.44      188.448      194.078      223.189      292.302      341.889      383.693      431.821     -1.00000
      268.000      77.0000      99.0990      969.640      8815.02      26722.6      44755.2      70875.0      111376.      111376.      111372.      6.00000
      950.000      846.000      155.870      7129.15      197.978      188.715      131.580      273.786      362.426      399.953      459.744     -1.00000
      518.000      997.000      197.281      7278.00      216.242      231.881      220.662      270.958      393.272      401.994      418.972     -1.00000
      270.000      709.000      150.079      5220.77      146.646      191.199      238.389      278.462      403.446      441.816      469.520     -1.00000
      259.000      132.000      84.1849      740.423      6017.70      18941.8      33141.9      54202.1      111378.      111372.      111381.      6.00000
      788.000      784.000      163.919      5332.33      200.972      196.244      221.766      290.219      389.223      426.934      460.917     -1.00000
      685.000      585.000      185.464      883.440      7787.34      23427.8      38526.2      59104.7      111385.      111374.      111378.      6.00000
      139.000      893.000      166.227      5945.95      188.838      202.339      189.542      256.509      411.344      392.491      452.203     -1.00000
      561.000      116.000      62.7318      672.364      6131.64      18566.0      30790.6      49866.3      110086.      111371.      111376.      6.00000
      896.000      756.000      178.674      4565.26      157.022      177.875      215.986      267.456      394.829      410.559      486.722     -1.00000
      705.000      878.000      184.771      5061.91      212.779      192.545      168.418      268.482      384.457      405.263      451.048     -1.00000
      631.000      715.000      170.074      4219.94      182.660      198.344      255.472      284.616      395.311      439.597      493.741     -1.00000
      718.000      843.000      169.692      4199.71      209.015      223.304      220.939      302.858      378.656      429.689      441.535     -1.00000
      995.000      1022.00      184.153      4910.36      193.415      171.758      175.402      215.057      310.229      286.943      324.272     -1.00000
      113.000      786.000      160.740      3906.82      195.909      173.683      191.163      256.611      339.112      394.960      433.643     -1.00000
      1000.00      744.000      146.262      3702.70      171.091      197.006      193.687      252.884      333.718      400.989      422.062     -1.00000
      813.000      701.000      144.237      3418.43      139.397      190.691      227.297      289.977      368.982      436.399      492.435     -1.00000
      358.000      908.000      185.465      4049.85      214.753      201.965      263.863      263.148      395.090      408.425      456.093     -1.00000
      694.000      723.000      163.391      2985.32      180.140      179.660      226.729      275.395      380.559      402.268      457.901     -1.00000
      602.000      914.000      198.996      3580.45      212.880      193.138      239.627      268.673      397.643      415.888      465.284     -1.00000
      372.000      1016.00      189.479      3925.02      206.091      204.242      245.879      272.686      368.229      386.323      399.071     -1.00000
      962.000      403.000      106.340      576.306      5309.30      16398.5      27652.3      45143.2      102947.      111375.      111383.      7.00000
      224.000      420.000      110.925      409.261      3871.96      11961.5      20456.6      35739.7      94318.8      111378.      111382.      7.00000
      365.000      612.000      158.851      405.422      3579.01      11306.4      19756.3      33790.5      91679.2      111376.      111375.      7.00000
      356.000      753.000      152.720      2890.62      181.406      184.837      248.458      285.541      362.916      415.262      437.977     -1.00000
      0.00000      936.000      553.189      3471.04      571.714      569.721      559.557      770.176      880.682      954.714      1243.76     -1.00000
      806.000      819.000      157.529      3001.17      178.387      192.061      256.731      296.730      374.869      416.730      422.832     -1.00000
      354.000      963.000      205.905      3443.39      219.508      200.910      242.980      266.915      361.496      375.085      425.639     -1.00000
      420.000      877.000      178.846      3122.51      205.010      236.465      227.797      346.339      563.008      777.572      1224.10     -1.00000
      276.000      737.000      146.427      2535.70      169.346      213.509      224.042      262.325      414.395      415.873      459.343     -1.00000
      707.000      655.000      167.823      581.483      4196.97      13137.4      22724.9      37874.4      87709.3      111225.      111376.      7.00000
      641.000      697.000      151.433      2402.18      181.201      217.815      226.305      288.321      417.776      436.169      515.414     -1.00000
      536.000      969.000      201.561      3141.74      209.821      206.732      177.519      252.518      336.135      400.592      437.772     -1.00000
      496.000      690.000      145.177      2334.68      155.450      185.395      240.397      266.532      371.476      410.344      445.591     -1.00000
      947.000      587.000      131.914      294.579      2858.17      8912.49      15583.1      27265.6      77825.8      111372.      111376.      7.00000
      206.000      787.000      158.964      2597.38      184.726      194.905      239.324      264.942      351.778      436.903      448.767     -1.00000
      278.000      870.000      175.997      2744.35      184.417      179.162      215.228      260.022      385.955      407.022      463.788     -1.00000
      683.000      832.000      176.307      2618.79      176.794      197.618      243.200      274.446      415.395      410.270      454.782     -1.00000
      330.000      981.000      207.931      2882.45      208.350      202.624      202.146      262.354      360.831      389.523      431.605     -1.00000
      909.000      844.000      174.384      2469.04      180.344      169.790      219.679      256.374      342.910      390.118      427.583     -1.00000
      831.000      708.000      143.183      2002.33      138.889      205.612      210.478      286.720      354.242      429.544      456.190     -1.00000
      213.000      923.000      190.548      2460.82      185.287      204.303      214.596      264.507      380.724      429.482      433.114     -1.00000
      783.000      1020.00      206.899      2637.98      202.124      208.602      173.984      253.363      384.314      400.900      484.855     -1.00000
      554.000      175.000      45.8006      38.5681      92.2740      230.907      289.202      370.821      6136.80      64450.8      111377.      8.00000
      878.000      976.000      188.623      2457.82      178.057      176.399      217.695      287.654      322.144      373.942      437.791     -1.00000
      538.000      1000.00      195.957      2492.56      200.395      206.304      193.311      316.330      394.917      439.248      527.610     -1.00000
      719.000      797.000      158.404      2022.84      210.237      206.589      219.153      272.355      408.062      453.854      491.155     -1.00000
      734.000      745.000      164.966      1862.23      165.572      167.611      239.652      281.354      375.224      417.202      449.275     -1.00000
      906.000      454.000      104.405      233.838      2678.79      8417.28      15724.0      25281.3      69781.7      106539.      111371.      8.00000
      911.000      795.000      158.311      1895.66      184.387      220.268      238.908      265.675      392.007      413.888      462.203     -1.00000
      971.000      821.000      174.942      472.689      2512.95      8026.96      14178.2      24387.1      67190.1      104016.      111382.      8.00000
      615.000      629.000      147.592      294.653      2364.41      7558.27      13382.1      23490.2      66760.9      102843.      111374.      8.00000
      460.000      846.000      171.097      1946.12      209.705      204.577      186.940      265.799      362.518      400.742      488.474     -1.00000
      577.000      599.000      140.238      107.079      276.642      421.384      506.620      710.794      21582.1      69057.8      111384.      8.00000
      153.000      698.000      135.424      1592.63      176.881      200.801      200.434      263.808      365.855      408.479      461.421     -1.00000
      604.000      951.000      166.516      2071.61      213.814      199.290      236.312      287.343      336.248      413.858      454.793     -1.00000
      657.000      716.000      171.273      1622.80      188.848      181.482      199.783      269.443      361.832      426.928      465.792     -1.00000
      281.000      753.000      202.618      537.817      3552.80      10968.1      18467.1      31173.7      75571.1      106102.      111377.      8.00000
      943.000      819.000      165.302      1794.57      174.097      180.480      202.836      269.050      380.013      395.321      444.241     -1.00000
      404.000      902.000      192.265      1882.10      197.067      169.103      221.454      259.839      351.256      398.015      433.508     -1.00000
      662.000      623.000      137.452      276.078      1588.98      4996.83      9716.72      15913.1      50019.1      84752.7      111378.      8.00000
      349.000      756.000      156.128      1589.73      201.681      213.630      271.346      307.332      405.195      463.380      523.309     -1.00000
      787.000      651.000      142.620      242.312      2218.34      6776.69      10406.5      18067.5      54177.8      87373.9      111373.      8.00000
      85.0000      745.000      150.140      1553.91      166.199      196.011      186.027      270.994      374.576      400.857      422.628     -1.00000
      883.000      692.000      152.857      1445.64      200.277      178.822      189.598      275.056      360.260      414.207      490.473     -1.00000
      267.000      689.000      135.498      1426.59      146.560      186.950      187.691      289.439      385.353      415.403      463.732     -1.00000
      773.000      757.000      160.647      1529.68      191.353      200.866      223.804      260.536      346.405      431.061      464.654     -1.00000
      469.000      702.000      130.042      1424.18      185.694      206.742      264.813      270.537      358.966      405.379      470.028     -1.00000
      630.000      1000.00      194.559      399.242      2102.91      6545.96      11578.9      19889.6      55974.7      86550.9      111378.      8.00000
      341.000      958.000      188.172      1820.83      228.517      192.320      239.552      284.548      354.219      410.066      456.489     -1.00000
      22.0000      494.000      57.5898      41.1049      1772.74      5376.49      225.235      16902.6      52311.8      82784.7      110016.      8.00000
      783.000      788.000      177.636      1503.20      183.822      199.715      244.726      259.005      389.448      416.204      486.923     -1.00000
      283.000      902.000      169.915      1687.76      201.522      212.918      249.134      255.726      397.835      404.418      452.734     -1.00000
      631.000      4.00000      30.3714      184.610      1582.17      5243.90      8685.14      15800.5      45139.1      77202.2      111375.      8.00000
      679.000      289.000      57.3610      258.714      2016.51      6327.62      10884.4      18983.3      53331.9      82533.8      111381.      8.00000
      44.0000      689.000      126.322      1338.43      145.544      186.950      196.668      287.514      355.057      406.075      429.746     -1.00000
      693.000      813.000      183.991      1530.90      189.228      217.099      239.148      275.278      389.919      460.066      486.302     -1.00000
      950.000      163.000      52.2053      166.072      1634.60      4919.94      9658.17      15143.1      46144.4      76535.3      111369.      8.00000
      871.000      723.000      155.072      1371.33      191.867      182.953      212.077      245.192      372.729      377.593      425.426     -1.00000
      27.0000      157.000      42.2600      184.544      1798.92      5479.01      9431.09      16650.2      48875.0      76942.3      111376.      8.00000
      196.000      915.000      190.354      353.297      1604.69      5213.29      9219.36      16407.8      48508.3      76786.8      110592.      8.00000
      518.000      314.000      25.8445      212.844      1746.16      5742.32      9865.32      17189.1      48592.6      76255.3      111373.      8.00000
      30.0000      831.000      162.507      1452.97      182.954      154.775      185.706      238.455      374.023      358.164      402.536     -1.00000
      710.000      702.000      144.674      1252.58      170.300      189.881      170.009      287.528      385.407      460.745      461.867     -1.00000
      822.000      465.000      75.0704      147.338      1308.23      4546.21      7778.12      13783.3      39463.7      68791.4      110989.      8.00000
      198.000      682.000      161.497      323.181      2597.75      8009.90      13638.2      23010.8      57581.8      81345.5      110421.      8.00000
      753.000      919.000      190.576      1529.49      201.247      215.989      223.987      262.178      353.207      402.997      468.034     -1.00000
      435.000      919.000      172.356      1513.35      218.745      195.049      226.830      303.267      398.865      388.377      459.110     -1.00000
      372.000      333.000      57.1210      117.749      1244.69      3783.74      6531.23      11693.8      38118.4      65816.5      111379.      8.00000
      104.000      696.000      141.528      1168.92      152.449      173.877      188.828      242.094      337.056      384.868      414.721     -1.00000
      378.000      87.0000      34.9256      180.203      1782.42      5562.08      9384.70      16555.4      46193.6      71243.5      111381.      8.00000
      176.000      663.000      140.112      168.034      1363.60      4255.00      7384.34      13160.7      40822.2      67558.4      110850.      8.00000
      293.000      642.000      147.423      229.502      1672.30      5210.45      9026.31      15804.6      44990.8      70271.7      111069.      8.00000
      987.000      724.000      138.456      1181.47      169.545      180.172      236.165      243.692      330.557      382.473      437.457     -1.00000
      213.000      730.000      145.527      1189.33      193.582      179.994      264.371      267.719      393.530      462.369      457.632     -1.00000
      878.000      865.000      194.492      1371.94      192.072      182.515      216.863      274.534      369.049      413.781      485.263     -1.00000
      586.000      930.000      199.839      1460.25      202.961      213.593      245.232      287.626      383.199      406.916      459.533     -1.00000
      806.000      694.000      146.167      1127.86      173.987      199.208      186.739      273.138      406.355      421.602      532.656     -1.00000
      337.000      952.000      182.883      1469.71      194.350      216.325      213.275      250.629      353.772      387.942      427.833     -1.00000
      471.000      774.000      159.302      1225.86      174.339      171.103      191.366      269.067      382.227      412.927      449.228     -1.00000
      625.000      654.000      142.140      194.720      1428.41      4525.06      7931.65      13900.6      40907.9      65876.8      111024.      8.00000
      569.000      760.000      172.076      369.351      1622.51      5028.85      8632.95      15066.9      42896.6      67143.2      109472.      8.00000
      84.0000      689.000      149.944      1094.16      144.374      185.950      210.948      284.613      357.673      377.999      429.177     -1.00000
      774.000      810.000      159.009      1227.17      176.275      189.976      214.183      279.904      383.548      391.713      462.292     -1.00000
      742.000      929.000      188.225      1372.55      204.710      192.764      213.423      275.740      342.819      387.747      430.560     -1.00000
      940.000      1018.00      174.360      1484.59      197.172      177.945      186.972      224.151      299.738      318.326      349.043     -1.00000
      282.000      882.000      163.146      1308.62      196.459      180.757      201.658      276.991      408.624      431.225      453.978     -1.00000
      947.000      852.000      175.680      1258.85      171.899      178.947      214.681      261.155      347.265      357.725      407.848     -1.00000
      620.000      900.000      188.236      1318.46      208.829      183.939      166.811      247.464      369.534      385.250      454.213     -1.00000
