PDS_VERSION_ID         = PDS3
RECORD_TYPE            = STREAM
OBJECT                 = TEXT
  PUBLICATION_DATE     = 2014-02-19
  INTERCHANGE_FORMAT   = ASCII
  NOTE                 = "WAC hot pixel file for epoch 2004.8."
END_OBJECT             = TEXT
END

WAC hot pixel list. Lines 1 and 2 are column headings giving exposure time 
(sec) and gain state (e-/DN), respectively, of source dark images. Starting 
on line 3, first two columns indicate x and y value of hot pixel; columns 3 
through N-1 give median electron counts for each exposure bin, and last (Nth) 
column contains either the index of the exposure bin where saturation first 
occurs, or -1 if no saturation.

\begindata
      0.00000      0.00000   0.00500000      10.0000      22.0000      32.0000      100.000      220.000      320.000      460.000      1200.00
      0.00000      0.00000      27.6800      27.6800      27.6800      27.6800      27.6800      27.6800      27.6800      27.6800      27.6800
      577.000      934.000      174.295      168.193      163.584      57500.0      29746.5      56772.9      397.184      56823.5      477.608     -1.00000
      554.000      848.000      296.735      25452.2      161.153      304.595      311.197      383.039      381.659      459.845      511.298     -1.00000
      833.000      1002.00      352.759      26360.7      144.454      294.576      323.482      354.599      344.511      407.885      416.661     -1.00000
      554.000      174.000      162.728      13534.9      28884.1      40032.2      100841.      111385.      111386.      111389.      111381.      5.00000
      268.000      751.000      308.595      17866.3      135.508      296.865      290.955      382.395      409.481      422.781      465.916     -1.00000
      833.000      328.000      169.554      13905.9      29372.7      40873.9      99250.1      111383.      111371.      111380.      111383.      5.00000
      224.000      756.000      144.829      153.047      136.098      34568.1      17188.4      33793.0      392.215      34054.3      472.403     -1.00000
      259.000      806.000      283.068      15517.4      193.766      280.491      333.640      385.572      399.568      425.799      486.351     -1.00000
      268.000      77.0000      114.674      9444.97      20084.0      28052.1      72496.1      111384.      111379.      111384.      111380.      5.00000
      577.000      598.000      138.177      6554.78      15005.3      20682.3      61937.0      110203.      111372.      111386.      111379.      5.00000
      561.000      790.000      341.856      12327.7      164.352      332.545      327.303      387.816      341.027      426.536      453.228     -1.00000
      259.000      132.000      79.3278      7975.94      14228.3      20348.1      57499.6      111373.      111384.      111385.      111379.      5.00000
      906.000      790.000      170.987      143.830      163.215      22294.7      11963.9      21296.3      354.867      21282.8      476.661     -1.00000
      554.000      510.000      74.4077      120.190      167.668      95232.4      48092.5      97488.7      384.860      94970.6      527.916     -1.00000
      787.000      987.000      166.600      171.185      151.258      17905.8      8859.56      16668.7      357.058      16657.4      507.229     -1.00000
      44.0000      680.000      246.580      7056.17      141.353      280.845      280.678      348.591      350.230      405.267      442.548     -1.00000
      685.000      585.000      166.746      7943.05      17051.6      23822.4      59344.4      98704.1      111386.      111384.      111389.      6.00000
      561.000      116.000      63.2306      6476.88      13662.2      19411.1      51722.1      90627.7      111379.      111384.      111383.      6.00000
      75.0000      757.000      128.660      141.754      171.475      10701.9      5174.57      10698.4      340.274      10654.6      459.767     -1.00000
      365.000      612.000      111.191      3575.88      7927.83      11639.7      34265.8      68124.9      92210.6      111387.      111386.      7.00000
      224.000      420.000      87.1569      3847.31      8279.75      12057.4      35956.9      70635.6      94156.0      111385.      111376.      7.00000
      962.000      403.000      102.005      5453.74      11683.3      16575.1      45337.6      81345.3      103741.      111385.      111383.      7.00000
      44.0000      6.00000      35.1221      3610.99      7748.60      11293.8      33506.8      66477.8      90190.5      111383.      111375.      7.00000
      259.000      468.000      71.7659      119.114      178.117      55173.8      27656.5      55311.1      369.162      55199.7      561.747     -1.00000
      631.000      4.00000      15.7687      2000.75      3517.55      4932.74      14136.9      40875.0      39589.6      77784.1      111383.      8.00000
      912.000      768.000      138.449      177.394      161.143      306.891      13941.7      358.621      76203.0      398.409      497.449     -1.00000
      631.000      678.000      283.569      4099.69      145.184      295.056      283.657      367.381      384.810      418.571      466.181     -1.00000
      971.000      821.000      159.264      1887.32      5717.85      7173.69      24622.0      35664.0      68274.0      67269.1      111382.      8.00000
      833.000      664.000      89.3891      137.781      148.986      95344.1      47852.0      95883.7      378.046      96439.7      504.754     -1.00000
      554.000      175.000      55.4293      138.552      177.972      218.360      348.463      806.316      10193.7      45295.3      111380.      8.00000
      1019.00      939.000      136.664      167.891      114.788      231.562      259.961      281.291      66117.0      309.285      362.724     -1.00000
      356.000      406.000      30.9891      87.8704      112.811      6373.06      2917.12      5690.58      370.629      6054.29      468.211     -1.00000
      615.000      629.000      90.4993      2348.45      5270.77      7699.38      23565.1      48573.2      67004.7      88644.8      111382.      8.00000
      27.0000      831.000      267.939      3442.16      135.960      268.203      307.032      343.689      357.864      386.189      443.148     -1.00000
      281.000      753.000      224.221      3548.38      7407.74      11249.0      32016.1      60410.2      76992.1      95123.1      111381.      8.00000
      518.000      988.000      318.533      3575.90      142.974      285.380      304.659      357.392      360.569      405.404      464.362     -1.00000
      268.000      413.000      64.1330      106.778      173.547      70686.8      35454.7      70703.3      346.317      70898.4      476.886     -1.00000
      787.000      651.000      84.3987      2277.47      5009.20      6437.41      19333.9      39356.1      53767.1      73496.5      111389.      8.00000
      289.000      420.000      82.7402      2074.76      5456.94      7248.85      22684.4      36326.5      42464.3      63491.7      111375.      8.00000
      950.000      837.000      308.325      3046.12      151.509      277.071      300.828      398.793      382.744      447.139      483.896     -1.00000
      378.000      87.0000      10.8150      66.1479      140.131      142.108      1840.11      320.476      46178.5      400.705      495.464     -1.00000
      683.000      485.000      42.2195      82.7530      149.599      5534.78      3023.28      5378.19      376.901      5424.88      469.971     -1.00000
      630.000      1000.00      203.091      2113.18      4596.02      6751.00      20199.0      40991.6      56286.5      74704.1      111387.      8.00000
      139.000      884.000      336.587      2966.32      145.263      274.741      306.460      346.713      361.695      384.573      435.863     -1.00000
      950.000      163.000      35.5561      1584.91      3337.42      4935.76      15213.8      32669.4      46238.9      64575.8      111374.      8.00000
      909.000      497.000      58.0698      110.515      141.398      5200.29      2540.98      4916.68      352.663      5093.84      448.873     -1.00000
      27.0000      157.000      30.4895      1751.56      3854.87      5467.53      16654.1      34916.2      49026.8      66561.8      111375.      8.00000
      547.000      370.000      85.4278      1918.78      4350.60      6162.18      17590.0      36005.2      45509.3      63163.5      109777.      8.00000
      196.000      915.000      183.343      1655.00      3580.02      5372.09      16509.2      35031.6      48601.2      65947.7      110012.      8.00000
      518.000      314.000      44.6478      1818.72      3971.83      5705.32      17309.8      35375.8      48743.9      65527.7      111383.      8.00000
      788.000      775.000      252.286      2551.55      149.921      262.058      279.373      350.692      383.047      386.982      440.126     -1.00000
      198.000      682.000      172.000      2683.64      5644.04      8158.70      23148.4      43969.9      57870.5      72714.7      109626.      8.00000
      176.000      663.000      87.2581      1353.37      2907.62      4286.53      13322.9      28785.3      39815.8      56923.4      110249.      8.00000
      365.000      948.000      169.538      165.507      143.243      32247.3      16428.2      32719.7      374.743      32565.0      502.468     -1.00000
      705.000      869.000      292.366      2525.68      137.152      276.028      293.466      360.684      347.333      409.261      450.512     -1.00000
      293.000      642.000      86.2388      1663.62      3660.27      5325.75      15977.3      32703.0      45093.1      60380.8      110808.      8.00000
      270.000      700.000      329.762      2266.32      117.455      276.082      304.261      374.154      365.534      387.834      429.758     -1.00000
      29.0000      803.000      169.445      170.493      141.754      294.527      4831.31      367.186      38608.5      389.184      443.465     -1.00000
      685.000      921.000      156.155      180.341      129.836      57469.9      28907.2      57406.0      341.096      57953.5      452.247     -1.00000
      906.000      454.000      58.7570      2368.50      5134.22      8957.77      28415.2      45784.0      74497.0      84268.8      111377.      8.00000
      569.000      760.000      185.123      1671.95      3535.68      5205.32      15433.8      31432.8      43181.3      57729.3      109415.      8.00000
      625.000      654.000      97.9694      1416.47      3034.59      4597.97      14028.2      29222.5      41234.0      55816.6      110525.      8.00000
      561.000      452.000      57.8392      119.089      136.539      49352.2      24928.3      49684.1      353.204      49764.6      476.066     -1.00000
      917.000      320.000      30.7357      88.9574      114.942      157.868      257.580      316.597      33133.4      394.240      454.389     -1.00000
      995.000      1013.00      339.124      2331.15      141.637      226.881      268.211      264.943      231.697      288.868      330.186     -1.00000
      718.000      834.000      329.690      2018.02      152.907      283.358      299.048      360.888      358.417      402.104      427.736     -1.00000
      1000.00      735.000      266.679      1882.59      155.182      259.152      295.222      376.234      386.971      409.108      520.473     -1.00000
      813.000      692.000      312.403      1781.12      165.256      270.771      299.469      355.065      364.781      433.810      444.371     -1.00000
      358.000      225.000      35.7155      116.025      2111.42      174.268      14283.0      392.357      56152.6      557.841      108394.     -1.00000
      139.000      210.000      21.9497      1541.77      3240.65      4632.18      13863.4      28684.1      39583.0      54105.1      107861.     -1.00000
      64.0000      541.000      63.3729      1804.18      3930.41      5798.30      17289.7      34665.4      48640.4      62998.0      107812.     -1.00000
      35.0000      307.000      32.1351      1065.38      2262.68      3195.71      9960.66      21532.8      31228.4      44409.2      106866.     -1.00000
      631.000      706.000      333.520      1723.17      155.459      301.819      280.728      412.235      390.914      455.799      495.285     -1.00000
      962.000      739.000      136.150      165.261      166.637      43341.5      21840.8      43634.3      394.240      43789.4      536.206     -1.00000
      788.000      101.000      18.8230      1305.68      2854.06      4045.35      12384.1      25799.5      36623.2      49713.1      105302.     -1.00000
      735.000      955.000      187.809      1493.30      3151.19      4545.51      9605.54      28504.5      15574.6      54600.6      107502.     -1.00000
      662.000      623.000      85.8313      143.564      2115.01      2554.93      15685.7      390.730      71017.8      755.217      105366.     -1.00000
      312.000      784.000      316.444      1768.72      151.117      309.051      307.282      384.610      380.033      451.845      501.883     -1.00000
      31.0000      908.000      138.003      1699.72      3541.79      5314.22      16183.2      34240.8      47513.9      63725.2      105118.     -1.00000
      631.000      340.000      37.5346      81.7595      143.418      14263.5      7281.97      19179.6      367.858      19091.6      466.903     -1.00000
      856.000      823.000      173.130      1468.51      2981.22      4631.83      14514.8      28766.6      41898.5      53320.1      103892.     -1.00000
      896.000      747.000      272.710      1698.44      141.809      271.810      290.014      371.002      356.851      432.280      438.438     -1.00000
      14.0000      1023.00      164.464      1549.35      3183.68      4696.40      12068.5      30547.6      29896.9      58173.4      103292.     -1.00000
      602.000      905.000      300.370      1833.11      144.251      274.731      290.519      380.812      341.672      395.511      450.353     -1.00000
      270.000      26.0000      9.94847      1159.52      2436.04      3568.45      10787.6      23525.6      32454.2      45811.5      99301.1     -1.00000
      911.000      478.000      61.0877      110.911      139.901      298.503      4610.04      360.226      26990.2      410.673      468.839     -1.00000
      705.000      195.000      36.6507      1274.15      2697.46      3912.63      11873.4      24712.3      34738.7      47428.5      98461.5     -1.00000
      354.000      954.000      363.174      1822.24      166.658      285.515      295.484      368.983      384.983      382.996      443.569     -1.00000
      496.000      681.000      307.734      1550.41      137.061      276.074      290.499      386.902      378.544      402.602      456.277     -1.00000
      800.000      542.000      73.5073      1161.40      2531.85      3712.22      11071.1      22932.0      33051.3      44903.7      96165.7     -1.00000
      208.000      776.000      169.475      1417.90      2872.95      4310.82      12687.2      25728.7      38510.2      48131.3      96798.6     -1.00000
      806.000      810.000      292.314      1635.93      149.510      293.144      317.707      370.449      369.357      409.979      472.573     -1.00000
      198.000      1018.00      156.764      138.379      140.718      22036.4      11114.1      22220.3      297.953      22204.9      416.342     -1.00000
      718.000      160.000      34.7987      1020.86      2265.83      3200.41      9844.79      21102.2      30068.5      42400.4      94185.9     -1.00000
      354.000      280.000      15.6378      891.089      1817.37      2831.62      8578.33      19717.4      25522.1      40646.1      94236.7     -1.00000
      1000.00      61.0000      24.9603      893.205      1991.69      2884.61      8937.13      19278.1      27203.3      38970.9      93299.2     -1.00000
      536.000      960.000      277.115      1749.38      140.097      312.297      276.802      360.202      350.604      379.041      421.051     -1.00000
      378.000      741.000      176.299      1107.36      2481.90      3393.11      10381.5      21542.3      31979.4      42392.3      93123.6     -1.00000
      999.000      454.000      61.2160      840.280      1860.71      2791.44      8400.73      17930.4      26001.4      36832.5      88400.8     -1.00000
      995.000      339.000      57.0669      1216.44      2586.07      3786.64      11227.7      23089.7      32634.9      43168.1      87932.6     -1.00000
      356.000      744.000      332.678      1448.27      151.312      313.988      323.317      388.395      403.401      462.627      518.122     -1.00000
      689.000      775.000      160.853      862.968      1782.35      2651.48      7940.44      17149.2      25024.1      35208.3      85882.7     -1.00000
      318.000      560.000      71.3717      312.579      569.214      943.497      4931.29      4566.78      22942.9      9244.86      22415.6     -1.00000
      547.000      706.000      140.186      147.078      164.921      17389.9      8848.10      17623.1      386.569      17554.7      524.283     -1.00000
      375.000      793.000      136.830      391.445      1773.93      1721.16      7622.90      4459.03      23504.6      8969.27      22761.0     -1.00000
      44.0000      342.000      20.1973      83.9075      128.729      31865.1      16119.1      31945.9      360.930      31994.8      466.559     -1.00000
      602.000      231.000      30.3977      928.337      1882.56      2801.88      8517.90      18537.9      25562.2      36609.6      82401.2     -1.00000
      694.000      40.0000      9.55450      262.486      348.624      673.448      4575.30      3896.04      21919.3      7866.44      19454.4     -1.00000
      761.000      624.000      73.2271      745.839      235.692      2541.01      4377.63      16117.7      1715.32      33224.4      6482.09     -1.00000
      426.000      434.000      47.4134      807.631      1636.51      2537.41      7539.82      16341.5      23685.0      33537.5      81375.4     -1.00000
      486.000      353.000      39.2874      982.968      2154.32      3173.16      8632.36      19658.3      23030.3      38659.8      81232.1     -1.00000
      129.000      236.000      22.7477      112.274      126.638      171.524      1845.67      335.045      21664.8      368.911      459.709     -1.00000
      312.000      110.000      30.3675      890.749      1925.58      2743.73      8099.53      17728.0      23898.1      35318.4      80051.2     -1.00000
      896.000      73.0000      19.2527      891.464      1895.10      2792.30      8414.72      17952.1      25539.4      35418.3      79903.5     -1.00000
      133.000      848.000      171.663      177.289      2014.61      302.351      8933.77      380.451      23204.0      431.275      79992.4     -1.00000
      845.000      827.000      183.457      921.271      1867.25      2803.08      8460.22      18265.0      26137.5      36497.7      79570.5     -1.00000
      577.000      599.000      66.2631      171.584      264.383      430.468      561.404      842.779      905.807      2425.08      78648.1     -1.00000
      193.000      706.000      158.583      893.080      1745.95      2641.45      7911.14      16962.7      24331.3      34167.4      77667.1     -1.00000
      631.000      32.0000      21.6230      889.287      2006.08      2731.23      8732.79      17384.1      25892.3      33844.9      75292.3     -1.00000
      475.000      445.000      56.2232      807.137      1727.86      2430.35      4787.33      15969.8      23178.2      32282.3      75620.9     -1.00000
      806.000      136.000      32.4889      799.019      1604.99      2555.51      8063.59      17039.7      21584.5      34850.0      75205.3     -1.00000
