PDS_VERSION_ID         = PDS3
RECORD_TYPE            = STREAM
OBJECT                 = TEXT
  PUBLICATION_DATE     = 2014-02-19
  INTERCHANGE_FORMAT   = ASCII
  NOTE                 = "WAC hot pixel file for epoch 2004.3."
END_OBJECT             = TEXT
END

WAC hot pixel list. Lines 1 and 2 are column headings giving exposure time 
(sec) and gain state (e-/DN), respectively, of source dark images. Starting 
on line 3, first two columns indicate x and y value of hot pixel; columns 3 
through N-1 give median electron counts for each exposure bin, and last (Nth) 
column contains either the index of the exposure bin where saturation first 
occurs, or -1 if no saturation.

\begindata
      0.00000      0.00000      0.00000      10.0000      32.0000      100.000      320.000      560.000      1200.00
      0.00000      0.00000      11.7270      11.7270      27.6800      27.6800      27.6800      27.6800      27.6800
      554.000      174.000      150.149      13282.5      39357.1      99889.7      111370.      111373.      111373.      4.00000
      833.000      328.000      167.422      13663.3      40274.2      98253.1      111374.      111371.      111375.      4.00000
      792.000      1007.00      161.266      13107.7      39020.8      96009.1      111376.      111368.      111365.      4.00000
      518.000      858.000      140.201      7406.67      23781.8      68966.6      111377.      111370.      111365.      4.00000
      577.000      598.000      111.058      6219.52      20083.9      58734.3      111367.      111364.      111364.      4.00000
      685.000      585.000      126.901      7855.57      23649.8      59244.5      111367.      111377.      111370.      4.00000
      259.000      132.000      87.2533      5742.49      18398.0      52745.4      111362.      111372.      111363.      4.00000
      561.000      116.000      90.5025      6188.13      18787.4      50651.0      111367.      111371.      111370.      4.00000
      947.000      51.0000      41.9421      3811.67      12056.4      36710.7      103022.      111358.      111367.      5.00000
      162.000      1018.00      108.117      4019.14      14176.7      42343.4      105443.      111372.      111374.      5.00000
      962.000      403.000      82.2562      5402.52      16584.9      45711.0      104154.      111364.      111375.      5.00000
      365.000      612.000      128.155      3443.46      10945.2      33496.8      91278.8      111367.      111371.      5.00000
      224.000      420.000      61.5890      3018.18      9721.89      29508.2      82177.4      111371.      111372.      5.00000
      906.000      454.000      94.0638      3008.42      9626.46      28925.3      79444.0      111368.      111372.      5.00000
      554.000      175.000      40.0174      164.588      253.966      363.787      5571.08      59108.9      111377.      6.00000
      971.000      821.000      98.5933      2377.81      7919.86      24175.1      67994.6      103536.      111366.      6.00000
      615.000      629.000      72.2242      2235.54      7532.99      23285.2      66834.9      102394.      111376.      6.00000
      826.000      799.000      132.876      2572.10      8431.51      25318.1      68532.5      101660.      111363.      6.00000
      119.000      316.000      72.1389      3108.99      9806.42      28413.4      72673.5      104389.      111362.      6.00000
      54.0000      76.0000      60.0981      2931.22      9111.70      26214.5      68682.8      100215.      111365.      6.00000
      868.000      257.000      39.2366      1708.14      5523.92      17142.7      53000.8      88357.1      111369.      6.00000
      9.00000      297.000      75.0310      3268.55      10180.6      30519.1      80810.5      108489.      111363.      6.00000
      281.000      753.000      137.567      3158.22      10555.7      26637.2      73330.0      101853.      111373.      6.00000
      707.000      655.000      106.402      2867.43      9472.05      27968.8      71407.9      99716.8      111362.      6.00000
      787.000      651.000      58.8644      1861.93      6541.91      19836.2      55959.7      88171.4      111366.      6.00000
      662.000      623.000      81.6806      1492.41      4861.55      15615.5      49586.1      83521.5      111372.      6.00000
      570.000      705.000      61.7443      1671.63      5515.07      17379.3      52031.7      83437.3      111368.      6.00000
      775.000      945.000      148.561      1950.20      6280.20      19665.4      55810.8      86024.4      111379.      6.00000
      343.000      173.000      67.3849      2056.30      6538.85      19588.1      54693.2      83578.3      111372.      6.00000
      950.000      163.000      35.9412      1520.00      4843.68      15131.3      46465.1      76765.3      111361.      6.00000
      131.000      429.000      36.8736      1587.36      5257.68      16212.6      47902.8      77120.8      111365.      6.00000
      27.0000      157.000      10.9580      1710.57      5328.43      16359.2      48071.0      76861.7      111372.      6.00000
      1007.00      108.000      34.1627      1854.74      5995.46      18180.2      52107.9      79501.1      111362.      6.00000
      78.0000      277.000      50.5096      1858.18      5880.18      17641.0      50082.9      77631.9      111364.      6.00000
      196.000      915.000      111.304      1461.98      5007.14      16096.0      47907.4      75748.2      111365.      6.00000
      518.000      314.000      21.6654      1759.88      5660.22      16987.8      48549.3      75708.8      111364.      6.00000
      176.000      663.000      39.9261      1397.30      4461.83      13897.0      43034.9      70687.1      111374.      6.00000
      518.000      859.000      134.434      270.278      490.146      823.384      1652.89      40204.0      111364.      6.00000
      822.000      465.000      29.3898      1437.96      4725.28      14741.0      43609.0      69680.9      111366.      6.00000
      293.000      642.000      32.1468      1549.92      5063.54      15566.8      44885.6      69652.7      111368.      6.00000
      378.000      87.0000      12.0052      1704.84      5349.85      15923.9      44588.0      69018.4      111366.      6.00000
      139.000      210.000      7.76867      1579.03      4942.69      14805.9      42412.9      67142.2      111362.      6.00000
      631.000      4.00000      33.8679      1452.52      4569.84      13648.9      40531.6      65202.7      111369.      6.00000
      569.000      760.000      108.485      1535.79      4901.24      15032.6      43257.1      67307.3      110453.      6.00000
      625.000      654.000      70.5458      1313.25      4381.35      13811.6      40918.6      65302.3      111170.      6.00000
      372.000      333.000      56.0949      1233.53      3922.80      11547.7      38223.1      62278.8      111366.      6.00000
      91.0000      394.000      52.5456      1194.45      3695.02      11616.7      36351.1      60902.2      109736.      6.00000
      1000.00      61.0000      29.0583      1215.85      3937.70      12089.0      36639.4      60279.0      111366.      6.00000
      268.000      77.0000      37.6135      2290.12      7158.26      20321.0      50991.4      73221.9      108454.     -1.00000
      788.000      101.000      18.5103      1218.85      4059.88      12462.5      37306.0      60589.8      107220.     -1.00000
      714.000      257.000      33.3731      1145.30      3507.08      11021.6      34236.4      57253.7      106758.     -1.00000
      31.0000      908.000      112.510      1544.32      4994.75      15874.1      46734.9      73532.6      106833.     -1.00000
      547.000      370.000      85.2130      1654.24      5231.14      15777.5      43426.1      66118.7      105643.     -1.00000
      83.0000      346.000      83.9220      1198.02      3705.25      11604.1      34719.2      58275.5      105012.     -1.00000
      198.000      682.000      125.631      2341.04      7507.22      21364.6      52749.5      73922.5      104930.     -1.00000
      856.000      823.000      95.3571      1329.21      4370.62      14065.2      40445.3      62915.7      104889.     -1.00000
      204.000      490.000      81.3908      1505.05      4724.55      14236.2      40017.5      61911.7      103253.     -1.00000
      689.000      775.000      111.485      954.282      3038.90      9679.53      30378.7      51890.9      102438.     -1.00000
      378.000      741.000      67.5908      1123.95      3722.49      11638.4      35672.4      57979.2      102354.     -1.00000
      270.000      26.0000      26.5967      1089.83      3532.45      10716.9      32739.1      54164.9      99934.6     -1.00000
      590.000      545.000      31.6807      1445.11      4617.50      13780.0      39369.7      60999.2      100465.     -1.00000
      705.000      195.000      52.2457      1189.93      3886.45      11718.9      34372.6      55565.8      98170.8     -1.00000
      519.000      951.000      94.2661      1070.47      3425.15      10889.3      32849.0      53791.1      98876.2     -1.00000
      1007.00      848.000      43.0447      930.424      2907.50      9286.22      30047.7      51143.4      98143.2     -1.00000
      679.000      128.000      48.6607      1129.10      3740.62      11342.3      33789.6      54835.4      95888.2     -1.00000
      44.0000      6.00000      27.4137      1135.21      3651.94      11053.2      32813.1      52991.3      95562.4     -1.00000
      169.000      539.000      73.1135      1045.40      3415.46      10309.9      31599.6      51852.2      95202.3     -1.00000
      718.000      160.000      17.5603      991.911      3143.94      9749.56      29895.9      49825.9      93236.7     -1.00000
      107.000      183.000      45.3647      1236.33      3699.71      11232.0      32860.7      52820.5      92784.4     -1.00000
      386.000      21.0000      23.4353      1208.19      3669.25      11151.8      33943.9      55868.9      91247.4     -1.00000
      999.000      454.000      82.8306      843.407      2554.22      8108.04      25691.1      43965.7      88275.4     -1.00000
      208.000      776.000      108.233      1046.71      3169.40      9802.99      29664.7      48570.2      88289.3     -1.00000
      258.000      770.000      110.099      1202.99      4056.44      12238.5      34828.0      53700.1      87589.2     -1.00000
      95.0000      485.000      75.5890      854.260      2701.30      8303.60      25484.7      43139.7      84908.6     -1.00000
      602.000      231.000      26.2601      898.334      2814.22      8581.66      26228.5      43611.2      83473.4     -1.00000
      776.000      274.000      44.9762      793.254      2554.22      7814.07      23964.6      40974.7      82938.7     -1.00000
      349.000      949.000      74.2862      870.540      2841.64      8995.38      27619.6      45321.4      83140.9     -1.00000
      631.000      32.0000      35.0655      1089.62      3262.30      9809.78      29107.7      46877.7      82309.8     -1.00000
      996.000      806.000      105.441      782.268      2579.58      8022.66      24931.2      42309.6      82907.3     -1.00000
      117.000      400.000      36.6067      837.601      2705.57      8299.81      25788.0      43195.7      82480.6     -1.00000
      339.000      693.000      45.3917      917.441      2880.74      9006.58      27491.7      45098.8      81990.2     -1.00000
      762.000      536.000      73.9666      999.304      3005.51      9842.14      28477.0      45964.6      81796.0     -1.00000
      382.000      814.000      66.0070      856.712      2770.04      9033.90      27973.7      45360.1      80873.3     -1.00000
      426.000      434.000      9.73119      719.299      2304.94      7205.48      23087.5      39786.0      80328.0     -1.00000
      476.000      192.000      27.8767      882.131      2704.96      8314.32      25225.7      41737.5      79011.3     -1.00000
      845.000      827.000      37.4729      798.058      2553.07      8120.87      25833.7      43387.0      79514.2     -1.00000
      293.000      379.000      42.3775      943.106      2938.56      9157.17      27357.7      44272.2      78976.4     -1.00000
      521.000      499.000      29.9316      701.772      2254.24      6918.16      22063.6      38066.1      78596.5     -1.00000
      193.000      706.000      63.6902      770.889      2513.53      7959.29      24489.8      41172.7      78617.9     -1.00000
      860.000      925.000      82.7531      861.764      2703.38      8373.60      25774.1      42422.7      78241.3     -1.00000
      486.000      353.000      69.1137      853.468      2726.78      8209.62      24654.7      41323.9      76638.3     -1.00000
      22.0000      494.000      65.6641      714.488      2248.28      6979.33      22517.0      38283.4      76744.0     -1.00000
      149.000      763.000      71.4498      838.323      2673.30      8327.94      25292.3      41562.2      76792.9     -1.00000
      475.000      445.000      45.7773      771.241      2318.55      7278.86      22898.7      38814.2      76097.7     -1.00000
      828.000      871.000      41.5526      836.140      2570.68      7852.14      24237.3      40385.0      76192.0     -1.00000
      348.000      584.000      99.3336      822.317      2648.77      8056.58      24273.9      39823.2      73669.1     -1.00000
      298.000      451.000      45.7524      828.600      2718.24      8484.16      25317.4      40982.3      73091.7     -1.00000
      577.000      599.000      15.6660      159.297      362.983      539.226      984.807      5573.99      73111.2     -1.00000
      113.000      103.000      37.1359      927.884      2869.64      8394.45      24709.2      40140.2      72713.4     -1.00000
      264.000      275.000      32.8801      893.758      2811.41      8462.15      24714.6      39875.0      72695.2     -1.00000
      668.000      920.000      88.6434      701.725      2701.42      8317.27      25111.9      39951.4      73169.4     -1.00000
      794.000      636.000      15.3416      664.891      2123.31      6701.96      21104.4      36485.2      72688.8     -1.00000
      812.000      397.000      33.8867      752.938      2449.03      7337.88      22296.4      37336.0      71577.2     -1.00000
      364.000      114.000      43.5607      1219.45      3686.60      10864.4      29460.3      44554.1      70953.7     -1.00000
      894.000      781.000      39.3091      802.820      2444.18      7622.48      23314.5      38656.8      71172.2     -1.00000
      899.000      837.000      56.0024      693.232      2116.67      6746.88      21307.3      36176.8      71211.4     -1.00000
      358.000      225.000      54.3268      661.045      2094.10      6273.96      19795.8      34351.0      70665.3     -1.00000
      750.000      336.000      10.0674      680.930      2346.66      7191.71      22312.2      37312.9      70565.3     -1.00000
      626.000      890.000      36.0853      689.843      2234.23      7014.31      22027.3      37223.7      70668.8     -1.00000
      585.000      354.000      70.6843      695.323      2075.44      6442.02      20219.5      34820.7      70227.2     -1.00000
      880.000      959.000      38.8877      650.208      1912.31      5930.01      19351.8      33748.1      70484.5     -1.00000
      1002.00      695.000      60.1370      747.320      2333.17      7030.97      21572.9      36140.5      69815.2     -1.00000
      377.000      252.000      55.3439      746.528      2270.75      6996.41      21469.0      35976.6      69191.7     -1.00000
      833.000      329.000      91.5333      220.717      353.263      617.432      2100.22      35123.0      69192.3     -1.00000
      554.000      173.000      15.3722      92.0898      136.864      281.075      504.390      6905.52      68892.4     -1.00000
      497.000      390.000      33.2011      742.195      2165.18      6495.03      20432.2      37231.5      68816.4     -1.00000
      49.0000      772.000      103.787      669.145      2163.39      6562.31      20727.1      35092.3      68668.0     -1.00000
      97.0000      627.000      47.4754      758.575      2428.71      7205.80      22329.0      36716.2      68461.0     -1.00000
      333.000      901.000      48.9628      668.656      2059.93      6259.12      19796.6      33828.6      66966.5     -1.00000
      493.000      874.000      86.1526      767.434      2320.20      7226.54      21995.2      36097.0      66366.7     -1.00000
      677.000      370.000      68.8884      646.014      2025.61      6147.60      19335.8      32894.6      65965.1     -1.00000
      911.000      112.000      38.5920      592.413      1898.94      5967.19      18675.8      31778.3      65708.6     -1.00000
      231.000      20.0000      18.5071      847.785      2765.81      8165.44      23619.3      37542.8      65553.7     -1.00000
      209.000      664.000      29.3204      613.090      1862.31      5714.06      18646.7      32125.0      65907.4     -1.00000
      278.000      187.000      42.1062      677.007      2079.82      6395.40      19630.6      33477.7      65503.4     -1.00000
      431.000      741.000      96.5078      717.280      2103.49      6391.97      19944.0      33676.2      64934.0     -1.00000
      690.000      144.000      34.6368      822.052      2634.91      7908.61      23044.3      36818.0      64397.1     -1.00000
      300.000      655.000      61.1434      701.257      1862.25      6407.78      19938.9      33343.2      64584.5     -1.00000
      783.000      337.000      19.3948      674.334      2044.10      6070.04      18992.1      31782.0      63554.4     -1.00000
      356.000      70.0000      11.9767      675.130      2186.37      6593.81      19611.2      33524.2      63197.1     -1.00000
      912.000      647.000      19.6713      591.706      1748.91      5458.81      17332.9      30164.2      63563.2     -1.00000
      909.000      161.000      23.9843      577.562      1844.16      5547.97      18068.6      29709.5      61704.4     -1.00000
      715.000      218.000      23.2011      673.446      2060.09      5922.33      18087.6      31404.1      61606.4     -1.00000
      1002.00      897.000      93.8730      583.965      1954.39      6077.06      19061.8      32180.9      61602.8     -1.00000
      289.000      420.000      32.6773      781.362      2347.65      7247.81      21217.6      34092.1      61226.5     -1.00000
      524.000      212.000      54.5050      774.454      2472.47      7430.99      21577.8      34505.1      60904.4     -1.00000
      1022.00      161.000      42.0357      687.605      2066.63      6227.26      18998.5      31703.6      60820.6     -1.00000
      730.000      825.000      63.8144      625.260      1904.07      5929.08      18138.2      31009.4      60658.4     -1.00000
      524.000      366.000      82.4007      702.276      2134.66      6472.49      19238.3      32157.8      60087.3     -1.00000
      990.000      458.000      72.5042      464.745      1682.48      5292.69      16957.2      29267.4      60022.6     -1.00000
      683.000      149.000      32.8550      637.488      2024.42      6106.96      18444.7      30868.2      59676.0     -1.00000
      991.000      946.000      104.500      583.545      1835.18      5729.75      18365.8      31015.1      59979.2     -1.00000
      814.000      283.000      23.1455      678.854      2195.15      6552.81      19722.2      32256.2      59499.6     -1.00000
      674.000      645.000      61.9569      732.213      2261.15      7149.50      20894.3      34594.3      59617.1     -1.00000
      888.000      986.000      45.7835      597.540      1753.46      5565.43      17401.4      29701.7      59321.1     -1.00000
