PDS_VERSION_ID         = PDS3
RECORD_TYPE            = STREAM
OBJECT                 = TEXT
  PUBLICATION_DATE     = 2017-12-05
  INTERCHANGE_FORMAT   = ASCII
  NOTE                 = "WAC hot pixel file for epoch 2017.3."
END_OBJECT             = TEXT
END

WAC hot pixel list. Lines 1 and 2 are column headings giving exposure time 
(sec) and gain state (e-/DN), respectively, of source dark images. Starting 
on line 3, first two columns indicate x and y value of hot pixel; columns 3 
through N-1 give median electron counts for each exposure bin, and last (Nth) 
column contains either the index of the exposure bin where saturation first 
occurs, or -1 if no saturation.

\begindata
      0.00000      0.00000      0.00000      10.0000      32.0000      100.000      560.000      1200.00
      0.00000      0.00000      11.7270      11.7270      27.6800      27.6800      27.6800      27.6800
      64.0000      68.0000      156.718      21887.0      64850.0      113493.      113496.      113498.      3.00000
      792.000      1007.00      187.007      21224.0      58777.9      110601.      113497.      113493.      3.00000
      554.000      174.000      87.0682      12846.5      38903.9      101705.      113499.      113492.      4.00000
      833.000      328.000      100.816      12741.0      38512.1      97160.2      113495.      113487.      4.00000
      413.000      578.000      94.0781      10106.9      30972.4      79285.5      113499.      113492.      4.00000
      511.000      126.000      55.9464      7654.07      24399.3      72674.8      113501.      113499.      4.00000
      473.000      457.000      96.2396      11081.4      32822.6      76925.9      113493.      113487.      4.00000
      423.000      955.000      118.109      6334.31      21785.0      64896.8      113491.      113492.      4.00000
      518.000      858.000      98.1710      6148.15      21383.6      64333.7      113497.      113494.      4.00000
      476.000      670.000      80.8531      5837.59      19746.8      55703.1      113494.      113493.      4.00000
      685.000      585.000      97.6436      7179.86      21998.5      56805.7      113496.      113501.      4.00000
      561.000      116.000      52.5263      6740.40      20543.3      54749.3      113491.      113487.      4.00000
      648.000      531.000      60.4776      5171.49      16870.5      50586.0      113495.      113496.      4.00000
      259.000      132.000      25.1549      5364.54      17341.9      50497.0      113491.      113496.      4.00000
      556.000      197.000      39.4638      5308.13      17400.3      50153.4      113499.      113488.      4.00000
      231.000      20.0000      31.6645      5390.65      16709.6      47209.1      113498.      113491.      4.00000
      108.000      289.000      54.3169      4631.17      14850.3      42334.5      113497.      113492.      4.00000
      962.000      403.000      36.0685      4550.18      14737.8      42139.3      113495.      113492.      4.00000
      541.000      168.000      15.3110      4148.29      13746.0      40255.9      113493.      113502.      4.00000
      891.000      939.000      76.6820      3835.56      13249.9      39360.8      113497.      113496.      4.00000
      349.000      771.000      78.0907      3668.91      12427.9      38514.3      113502.      113497.      4.00000
      804.000      646.000      49.8950      3970.99      13012.0      38101.0      113492.      113493.      4.00000
      339.000      693.000      53.0887      3376.46      12025.4      37067.9      113501.      113493.      4.00000
      947.000      51.0000      3.66900      3425.14      11006.9      34239.7      113493.      113502.      4.00000
      441.000      853.000      73.5664      2657.81      10050.5      33221.3      113498.      113502.      4.00000
      365.000      612.000      57.5774      2969.87      9999.43      31834.4      113492.      113490.      4.00000
      162.000      1018.00      80.9917      2465.08      9751.83      31629.9      111521.      113500.      4.00000
      139.000      781.000      71.9587      3082.02      10379.2      31505.6      112151.      113496.      4.00000
      354.000      544.000      32.9853      2814.56      9749.39      30558.4      113501.      113500.      4.00000
      224.000      420.000      29.8471      2668.61      9343.67      29885.3      113496.      113491.      4.00000
      474.000      416.000      44.7961      2707.66      9288.27      29045.1      113494.      113497.      4.00000
      98.0000      390.000      40.5801      2411.54      8433.03      27061.3      110390.      113496.      4.00000
      114.000      405.000      36.0543      2456.55      8435.17      26915.5      113496.      113488.      4.00000
      640.000      997.000      85.2521      2197.50      8037.41      26462.6      112786.      113492.      4.00000
      594.000      21.0000      9.23086      2551.30      8388.59      26074.6      113497.      113491.      4.00000
      91.0000      394.000      30.3664      2196.66      7598.69      24379.5      111427.      113495.      4.00000
      842.000      712.000      44.7741      1878.37      7025.11      23361.6      113502.      113501.      4.00000
      343.000      726.000      53.9520      1901.25      6816.58      22786.2      113493.      113489.      4.00000
      689.000      775.000      64.9533      1609.62      6025.79      19917.3      105476.      113503.      5.00000
      666.000      481.000      36.5698      2828.57      9403.87      28058.8      107303.      113489.      5.00000
      143.000      272.000      26.2060      2490.69      8135.21      25115.3      104449.      113489.      5.00000
      87.0000      781.000      42.1955      2393.60      8527.94      26647.7      104963.      112514.      5.00000
      861.000      577.000      45.1457      2096.89      7307.00      22974.9      102402.      113490.      5.00000
      1000.00      61.0000      7.26691      2216.53      7553.43      23074.6      103747.      113485.      5.00000
      971.000      821.000      35.6697      1945.94      6926.24      22492.0      101448.      113488.      5.00000
      663.000      382.000      32.0766      1995.66      6828.60      21306.6      101320.      113484.      5.00000
      615.000      629.000      40.4313      1797.34      6525.71      21375.3      99705.5      113495.      5.00000
      577.000      598.000      55.5463      2004.79      7214.95      22825.6      98600.1      113494.      5.00000
      437.000      830.000      80.2340      1495.50      5527.53      18481.9      1307.59      2510.31     -1.00000
      237.000      376.000      16.5279      1841.60      6420.69      20595.6      93764.6      113501.      5.00000
      188.000      899.000      58.8028      704.705      2394.11      8251.71      86881.9      113037.      5.00000
      826.000      799.000      63.2774      1944.26      6709.27      21432.1      93699.1      113492.      5.00000
      358.000      225.000      38.3838      1550.62      5318.46      16457.2      88640.1      113493.      5.00000
      55.0000      294.000      28.2463      3178.05      9919.73      27226.6      94807.3      113496.      5.00000
      570.000      705.000      40.9706      1478.74      5427.03      18082.7      90233.3      113489.      5.00000
      815.000      104.000      7.93027      2045.18      6641.47      20108.9      91359.0      113491.      5.00000
      807.000      61.0000      13.5865      1566.29      5074.30      14596.0      85079.6      113485.      5.00000
      261.000      351.000      19.5532      1757.24      5990.92      19093.5      89275.8      113496.      5.00000
      787.000      651.000      37.7224      1453.50      6068.31      17478.0      87300.2      113491.      5.00000
      950.000      163.000      57.0064      1463.99      5062.23      16105.1      83619.1      113490.      5.00000
      906.000      454.000      38.4519      1757.82      5961.35      18825.2      86996.2      113493.      5.00000
      83.0000      762.000      56.0828      1183.07      4317.80      14316.9      72380.5      111552.      5.00000
      630.000      1000.00      69.8674      1482.46      5594.91      18727.3      85210.7      113501.      5.00000
      562.000      825.000      66.0803      1848.25      6571.36      20311.9      83197.6      113491.      5.00000
      54.0000      76.0000      9.67711      2033.70      6505.73      19435.6      82116.4      113493.      5.00000
      372.000      333.000      26.2446      1335.65      4471.24      14535.0      79326.3      113495.      5.00000
      124.000      967.000      57.2685      1343.26      4439.06      15375.6      80078.0      110569.      5.00000
      594.000      989.000      65.5056      1385.76      5378.85      17975.4      81568.4      113492.      5.00000
      78.0000      277.000      39.5354      1741.04      5846.51      17990.1      80605.9      113494.      5.00000
      631.000      4.00000      6.60006      1773.81      5660.53      17082.9      80768.6      113487.      5.00000
      486.000      334.000      40.7096      1502.28      4983.08      15781.0      78620.4      113495.      5.00000
      991.000      762.000      65.1452      1022.01      3875.62      13492.1      76354.7      113492.      5.00000
      119.000      316.000      44.6033      1939.96      6516.12      19635.0      78809.4      113498.      5.00000
      27.0000      157.000      25.9226      1548.50      5152.29      15977.3      77050.8      113485.      5.00000
      519.000      951.000      73.1652      1378.17      4830.01      16060.1      77154.9      113492.      5.00000
      1012.00      563.000      18.8779      1142.95      4065.41      13801.5      74120.9      113499.      5.00000
      210.000      792.000      69.2919      1404.96      5021.96      16473.3      76695.5      113501.      5.00000
      598.000      415.000      58.5207      1443.96      4962.96      15968.4      76118.0      113499.      5.00000
      353.000      817.000      78.1841      1080.94      3874.23      13486.1      73370.1      113495.      5.00000
      206.000      72.0000      5.94745      1571.24      5183.57      15804.3      74490.5      113501.      5.00000
      554.000      175.000      17.3557      127.804      285.662      413.522      64095.6      113491.      5.00000
      518.000      314.000      19.3849      1578.06      5291.15      16408.2      75023.2      113496.      5.00000
      212.000      543.000      29.4179      1075.67      3713.31      12398.5      70693.3      113498.      5.00000
      597.000      612.000      41.0722      2096.86      7081.48      21353.1      75893.3      110666.      5.00000
      289.000      987.000      52.2626      1196.12      4271.95      14202.8      71129.0      113345.      5.00000
      238.000      409.000      32.3105      1006.51      3797.62      12602.5      64295.0      112862.      5.00000
      239.000      948.000      67.1314      1073.39      4066.87      13965.5      70164.9      112520.      5.00000
      196.000      538.000      53.9527      1003.08      3749.61      12455.9      68750.4      113489.      5.00000
      176.000      663.000      47.6241      1008.14      3715.16      12600.4      68257.5      113498.      5.00000
      293.000      642.000      53.9064      1399.50      4822.35      15514.2      70885.6      113499.      5.00000
      29.0000      605.000      40.5491      1267.73      4416.62      14064.0      68829.0      110122.      5.00000
      685.000      840.000      72.8602      1195.92      4305.91      13839.3      68258.0      113488.      5.00000
      232.000      277.000      15.2066      1279.83      4506.63      13880.1      67703.4      113494.      5.00000
      630.000      841.000      46.2046      1067.36      3967.53      13341.4      66528.8      113463.      5.00000
      239.000      526.000      58.6252      977.265      3497.97      11522.6      63846.5      113502.      5.00000
      898.000      537.000      38.6164      1066.22      3970.29      13235.5      65392.0      113170.      5.00000
      110.000      1007.00      56.0309      507.297      3798.32      13188.2      65369.3      110198.      5.00000
      655.000      969.000      64.7113      887.199      3324.67      11580.7      64049.2      113496.      5.00000
      139.000      210.000      15.2883      1415.16      4734.69      14230.3      66229.9      112603.      5.00000
      732.000      346.000      32.1637      1363.55      4467.82      13879.5      65453.8      111090.      5.00000
      278.000      928.000      78.2436      955.174      3570.04      12026.9      63635.3      110678.      5.00000
      675.000      364.000      29.1784      1198.67      4253.49      13462.9      64981.3      113226.      5.00000
      633.000      123.000    0.0685882      1415.09      4696.14      14276.7      65433.4      111308.      5.00000
      804.000      537.000      27.4966      1191.15      4289.56      13566.8      64691.3      111964.      5.00000
      625.000      654.000      37.7742      1095.49      3834.52      12868.6      63892.3      110733.      5.00000
      57.0000      393.000      35.6191      1156.70      4020.45      12725.8      63193.3      109820.      5.00000
      632.000      453.000      16.2063      957.973      3541.50      11752.3      62029.0      110716.      5.00000
      239.000      74.0000      13.2177      1401.27      4693.67      14345.2      64809.7      112049.      5.00000
      178.000      169.000      25.5192      1050.05      3609.30      11200.0      60717.0      113502.      5.00000
      295.000      583.000      44.7768      922.427      3379.04      10909.2      59564.2      109777.      5.00000
      864.000      553.000      32.7298      898.526      3124.12      10481.0      57776.2      110741.      5.00000
      999.000      454.000      34.0932      820.423      3000.77      9883.57      54471.9      108844.     -1.00000
      569.000      760.000      55.2973      1168.55      4231.04      13672.9      64433.0      108947.     -1.00000
      547.000      370.000      35.9666      1553.79      5245.38      16034.2      67545.3      108492.     -1.00000
      86.0000      392.000      22.6533      990.346      3459.83      11109.3      58981.6      107658.     -1.00000
      190.000      25.0000      5.64912      1228.71      4242.01      12892.0      60447.1      107128.     -1.00000
      131.000      429.000      29.5491      940.216      3475.56      11309.6      57795.5      106685.     -1.00000
      31.0000      908.000      58.5985      1184.83      4343.12      14681.5      71694.6      106859.     -1.00000
      13.0000      426.000      51.7677      1148.17      4105.57      13159.1      62285.4      106275.     -1.00000
      911.000      495.000      51.7467      778.881      2752.74      9133.28      52861.7      105686.     -1.00000
      974.000      903.000      43.2134      906.718      3379.22      11522.9      59558.5      106122.     -1.00000
      268.000      77.0000      2.29630      1430.61      4664.22      13838.9      61274.0      104624.     -1.00000
      264.000      275.000      20.4747      1546.13      5208.64      15640.6      65431.3      104386.     -1.00000
      743.000      333.000      12.8070      1208.65      4274.92      13551.9      62404.2      104412.     -1.00000
      465.000      787.000      49.0917      854.240      3046.57      10030.4      55120.2      104804.     -1.00000
      131.000      610.000      43.8666      907.002      3242.68      10794.1      56130.5      104229.     -1.00000
      198.000      682.000      60.7742      1969.93      6789.17      20213.3      71422.7      103352.     -1.00000
      398.000      742.000      37.7797      909.508      3930.44      12650.0      59891.9      102299.     -1.00000
      185.000      14.0000      6.43446      1548.65      5078.74      14926.2      61573.1      101255.     -1.00000
      482.000      17.0000      21.2482      1006.33      3447.29      10865.5      50536.3      101044.     -1.00000
      270.000      26.0000      15.3806      981.875      3432.46      10598.9      54072.3      100907.     -1.00000
      912.000      647.000      21.9755      652.469      2301.52      8012.85      47544.9      101160.     -1.00000
      208.000      776.000      52.0907      852.856      2976.28      10204.6      54131.9      101268.     -1.00000
      378.000      741.000      56.9771      854.839      3112.67      10731.5      55144.5      99752.3     -1.00000
      162.000      666.000      51.3548      829.137      3093.39      10541.9      54889.5      98905.9     -1.00000
      690.000      244.000      14.2383      1054.28      3705.76      11623.3      55301.2      97554.4     -1.00000
      682.000      926.000      71.3543      794.689      2778.88      9675.49      52083.4      96538.7     -1.00000
      996.000      806.000      42.7555      725.775      2632.04      9066.97      49574.3      95931.0     -1.00000
      95.0000      485.000      24.0428      765.563      2635.35      8856.58      48086.4      95353.1     -1.00000
      204.000      490.000      34.4236      1098.20      3707.79      11732.4      54921.5      94823.5     -1.00000
      1016.00      482.000      32.0889      890.675      2899.35      9559.56      49457.8      94553.1     -1.00000
      887.000      678.000      23.8572      734.001      2603.50      8923.63      48826.0      94586.0     -1.00000
      511.000      127.000      14.3428      90.4411      199.684      395.995      41240.0      93987.8     -1.00000
      641.000      14.0000     -7.64862      898.029      3136.27      9784.95      49760.9      93679.3     -1.00000
      718.000      160.000      8.02270      870.463      2939.55      9325.48      49267.8      93540.0     -1.00000
      899.000      604.000      35.5744      1160.70      4127.50      13259.7      56038.1      93905.9     -1.00000
      518.000      859.000      65.2505      341.291      617.778      1205.35      40071.9      113492.      5.00000
      44.0000      6.00000      28.1844      1011.23      3404.83      10461.7      50815.9      93243.7     -1.00000
      691.000      62.0000      22.5610      1044.10      3550.46      10890.4      51889.3      92851.8     -1.00000
      343.000      725.000      41.7750      346.952      1103.98      3925.67      31778.9      92837.9     -1.00000
      107.000      183.000      13.4610      966.534      3433.12      10661.9      51255.6      92059.9     -1.00000
      393.000      618.000      38.6686      731.057      2534.74      8657.52      47938.9      91608.5     -1.00000
      319.000      366.000      21.3523      1122.69      3780.13      11660.3      54429.3      91055.5     -1.00000
      390.000      983.000      63.7628      811.358      2922.52      9816.17      50621.1      91548.4     -1.00000
      646.000      910.000      65.4361      765.707      2689.63      9319.48      49137.7      91277.9     -1.00000
      25.0000      584.000      25.7824      780.690      2687.41      9058.92      47943.3      90783.3     -1.00000
      175.000      25.0000      6.73385      715.114      2423.56      7671.26      42496.0      90137.8     -1.00000
      588.000      255.000      11.3512      785.350      2705.10      8823.50      46850.2      89920.1     -1.00000
      1018.00      380.000      10.5850      795.565      2859.68      9447.82      49126.8      89622.7     -1.00000
      511.000      125.000      14.6148      45.5961      126.551      217.660      2820.73      89128.0     -1.00000
      44.0000      269.000      22.5476      874.905      3011.96      9259.95      47251.9      88808.6     -1.00000
