PDS_VERSION_ID         = PDS3
RECORD_TYPE            = STREAM
OBJECT                 = TEXT
  PUBLICATION_DATE     = 2014-02-19
  INTERCHANGE_FORMAT   = ASCII
  NOTE                 = "WAC hot pixel file for epoch 2004.3."
END_OBJECT             = TEXT
END

WAC hot pixel list. Lines 1 and 2 are column headings giving exposure time 
(sec) and gain state (e-/DN), respectively, of source dark images. Starting 
on line 3, first two columns indicate x and y value of hot pixel; columns 3 
through N-1 give median electron counts for each exposure bin, and last (Nth) 
column contains either the index of the exposure bin where saturation first 
occurs, or -1 if no saturation.

\begindata
      0.00000      0.00000   0.00500000     0.100000     0.320000     0.560000      1.00000      2.00000      3.80000      6.80000      12.0000      22.0000      46.0000      82.0000      150.000      320.000      1200.00
      0.00000      0.00000      11.7270      11.7270      11.7270      27.6800      27.6800      27.6800      27.6800      27.6800      27.6800      27.6800      27.6800      27.6800      27.6800      27.6800      27.6800
      833.000      328.000      200.975      311.201      653.334      973.015      1595.42      3073.30      5496.06      9619.73      16577.4      29117.4      23974.5      86447.6      111398.      111393.      111412.      12.0000
      554.000      174.000      176.805      269.201      591.195      893.367      1486.24      2864.62      5272.72      9398.54      16053.7      28431.7      54740.9      87235.1      111399.      111392.      111412.      12.0000
      268.000      77.0000      116.172      216.753      464.477      695.409      1142.08      2131.42      3945.87      6956.24      11935.0      20760.9      39625.6      62417.2      95182.8      111393.      111412.      13.0000
      577.000      598.000      168.142      197.780      304.869      440.315      732.527      1264.27      2380.93      4271.08      7416.00      13487.0      28022.6      47896.6      80559.8      111392.      111412.      13.0000
      259.000      132.000      81.4590      114.558      320.204      440.175      734.739      1365.86      2542.54      4442.23      7786.38      14096.7      28616.2      48283.5      79971.0      111394.      111412.      13.0000
      224.000      420.000      126.020      202.190      349.662      484.551      752.610      1456.87      2685.02      4782.17      8462.09      15187.6      30062.4      50175.1      79281.1      111400.      111412.      13.0000
      685.000      585.000      158.767      229.387      402.560      588.073      938.731      1726.82      3223.39      5581.13      9677.74      17205.9      33043.7      52000.7      79128.2      111394.      111412.      13.0000
      561.000      116.000      109.211      138.956      307.781      414.871      731.949      1328.38      2502.49      4395.08      7672.73      13562.8      26563.6      43624.8      69196.4      111167.      111412.      13.0000
      962.000      403.000      102.731      135.799      245.939      377.537      592.936      1105.27      2047.04      3701.43      6547.61      11728.7      23233.0      38766.2      62865.0      104035.      111412.      14.0000
      365.000      612.000      97.4402      140.279      203.691      263.970      405.904      779.937      1435.85      2477.12      4485.56      7750.38      16386.3      28625.5      49114.0      92335.7      111412.      14.0000
      44.0000      6.00000      25.1715      67.0051      154.570      218.044      387.268      653.259      1274.63      2231.85      3877.68      7089.29      14376.1      24845.8      42717.5      79160.4      111412.      14.0000
      631.000      4.00000      32.2345      35.1926      88.1573      129.611      231.360      400.245      755.414      1409.67      2435.55      4446.75      9198.90      16054.0      28530.5      56707.4      111412.      14.0000
      615.000      629.000      68.8640      99.1840      132.662      197.206      344.269      510.972      932.095      1603.76      2881.88      5219.18      11031.7      19683.9      34808.3      67444.5      111412.      14.0000
      787.000      651.000      102.591      61.3183      153.134      164.677      252.453      464.225      918.909      1572.22      2347.50      4875.46      8850.56      16761.9      28492.8      59028.6      111412.      14.0000
      630.000      1000.00      84.3326      102.842      178.651      200.065      287.551      481.448      851.113      1418.72      2489.41      4659.15      9567.38      16848.5      29618.9      57153.6      111412.      14.0000
      950.000      163.000      34.3803      50.3520      75.4168      136.619      209.123      380.069      708.241      1221.34      2043.11      3829.08      7844.49      14044.1      25393.0      52048.0      111412.      14.0000
      153.000      15.0000      55.2972      63.0610      121.497      182.576      308.544      576.390      1069.80      1894.42      3275.57      5799.45      11696.7      19747.8      33427.8      60296.3      111412.      14.0000
      198.000      682.000      106.945      108.102      128.991      209.879      328.241      608.957      1065.07      1866.95      3176.31      5680.73      11553.4      19446.2      32576.7      57520.5      111412.      14.0000
      971.000      821.000      89.9671      81.5738      107.215      169.927      263.612      434.004      758.372      1226.51      2091.86      3941.77      7961.02      14100.4      25146.8      49923.9      111412.      14.0000
      27.0000      157.000      48.1299      45.4852      96.1659      131.314      227.635      378.643      672.365      1234.76      2099.49      3826.90      7837.28      13826.0      24556.1      48965.2      111412.      14.0000
      196.000      915.000      47.1461      89.3144      177.506      175.730      245.445      397.099      662.261      1158.88      1956.74      3667.25      7660.99      13745.7      24740.8      49284.5      111412.      14.0000
      64.0000      541.000      85.3598      101.903      167.332      168.352      257.778      445.034      713.059      1342.61      2267.61      4191.79      8654.29      15008.5      26226.1      50258.6      109751.      14.0000
      518.000      314.000      71.5173      70.4397      103.627      146.625      248.092      394.022      727.862      1275.65      2255.49      4000.52      8268.31      14348.0      25125.6      48865.0      111412.      14.0000
      547.000      370.000      61.2028      71.1949      149.165      174.576      212.388      407.433      784.542      1295.51      2406.62      4346.00      8951.47      15176.9      26263.3      48650.4      110582.      14.0000
      293.000      642.000      39.3764      80.8630      117.134      160.212      244.594      397.482      685.581      1177.96      2018.38      3609.03      7635.33      13253.0      23366.5      45429.8      111412.      14.0000
      569.000      760.000      111.705      50.7197      162.390      150.942      245.892      379.136      674.357      1173.12      1976.75      3606.01      7247.92      12782.6      22521.7      43817.1      110582.      14.0000
      176.000      663.000      67.4139      60.1251      124.875      131.652      220.530      295.344      561.419      991.497      1648.99      2924.76      6082.75      10956.6      19762.4      40924.9      111412.      14.0000
      625.000      654.000      103.893      138.548      158.325      150.440      209.115      350.481      555.770      956.583      1703.63      3081.82      6576.58      11594.1      20768.3      41409.5      111412.      14.0000
      139.000      210.000      63.2631      43.8682      94.1235      134.757      217.892      341.838      648.427      1097.49      1938.06      3448.45      7076.91      12302.7      21658.4      42225.8      111412.      14.0000
      788.000      101.000      21.0531      49.8293      90.1351      105.258      155.082      311.116      510.811      938.759      1605.44      2908.89      6109.25      10565.2      18817.8      37672.9      107288.     -1.00000
      31.0000      908.000      83.8229      76.0285      176.868      171.210      264.213      391.638      698.228      1149.93      1997.21      3621.39      7631.01      13453.7      24010.4      47545.7      107288.     -1.00000
      14.0000      1023.00      82.6450      114.315      0.00000      218.498      319.131      517.168      919.132      1611.83      2732.97      4992.65      10411.4      18429.0      32777.6      64307.0      107288.     -1.00000
      856.000      823.000      116.784      85.2781      140.407      155.391      224.380      344.803      593.607      964.899      1641.87      2976.71      6353.39      11351.6      19995.4      39135.2      104824.     -1.00000
      354.000      280.000      54.6581      55.1257      73.3353      96.3027      98.8404      211.677      387.668      641.186      1143.33      2007.85      4145.24      7409.87      13498.0      28392.4      102416.     -1.00000
      378.000      741.000      97.8100      93.5252      60.4164      130.598      194.113      306.663      513.481      831.188      1418.55      2512.31      5257.47      9282.99      16573.4      33730.5      100811.     -1.00000
      270.000      26.0000      24.4005      26.9139      70.4891      69.4211      129.338      230.545      418.638      802.532      1380.93      2508.34      5045.40      8974.50      16104.9      33041.8      99232.8     -1.00000
      214.000      936.000      55.5900      71.8377      110.391      153.598      192.345      316.385      507.831      775.370      1249.61      2227.07      4614.64      8492.37      15543.4      32265.1      100036.     -1.00000
      896.000      73.0000      24.8636      55.3153      80.2216      104.553      171.480      309.564      557.986      899.625      1619.31      2962.26      6168.89      10825.1      19295.8      38230.9      98457.8     -1.00000
      705.000      195.000      43.8930      76.4723      79.2979      99.5423      142.547      259.564      482.243      899.119      1516.84      2701.40      5615.15      9827.41      17286.5      34720.6      98457.8     -1.00000
      806.000      136.000      23.7123      47.2196      66.2405      76.7897      120.625      233.539      401.148      595.476      1236.51      1979.18      4435.24      7356.81      13945.8      24639.7      97655.0     -1.00000
      800.000      542.000      80.5953      97.9826      116.088      114.937      166.045      288.469      462.992      787.400      1378.99      2528.76      5173.07      9046.26      16151.3      32883.2      96880.0     -1.00000
      208.000      776.000      68.6209      126.732      89.8865      149.170      238.683      356.882      574.076      988.700      1628.62      2884.84      5919.68      9825.25      18171.9      35800.7      96880.0     -1.00000
      718.000      160.000      27.2549      33.5248      79.7707      86.4597      126.590      211.687      394.612      688.185      1184.51      2215.90      4555.38      8194.66      14778.5      30509.3      94554.9     -1.00000
      1000.00      61.0000      39.5763      13.9934      35.4286      81.1016      130.318      155.826      390.060      632.927      1114.03      2022.68      4225.57      7384.52      13279.3      27746.2      93004.8     -1.00000
      220.000      4.00000      32.2345      36.6651      52.2224      76.4099      109.381      221.791      339.384      658.650      1129.27      2158.11      4362.83      7479.24      13323.5      27715.8      89987.7     -1.00000
      679.000      289.000      51.3077      56.5337      92.6195      87.7117      165.223      228.361      459.926      843.005      1404.99      2574.90      5260.33      9203.39      15427.6      31393.9      89212.6     -1.00000
      999.000      454.000      57.2130      68.3833      103.032      102.726      116.119      210.257      354.926      576.951      1038.34      1888.90      3858.65      6890.02      12411.9      25785.8      88465.3     -1.00000
      184.000      626.000      115.525      94.6646      143.111      114.594      153.994      307.387      436.646      760.240      1324.77      2320.71      4800.01      8461.32      15081.6      30497.9      86998.2     -1.00000
      75.0000      421.000      52.7516      42.6728      84.9117      119.894      138.671      238.662      415.740      703.268      1207.97      2180.29      4376.61      7749.22      14010.2      28676.6      84783.8     -1.00000
      604.000      268.000      60.5465      90.1788      67.7458      88.5563      104.348      231.865      405.084      669.858      1162.26      2065.65      4339.78      7680.95      13240.8      27241.4      84064.2     -1.00000
      486.000      353.000      54.8759      43.8734      83.3594      91.3469      166.328      207.231      380.951      662.494      1189.65      2129.48      4338.59      7611.92      13505.3      27431.9      84064.2     -1.00000
      602.000      231.000      44.7813      60.6808      80.2142      78.1455      106.749      208.098      389.171      622.182      1117.86      1978.30      3973.53      7012.99      12608.1      26057.1      83344.5     -1.00000
      690.000      447.000      64.4350      71.2884      60.0751      48.3184      49.9828      45.2674      68.5841      77.6449      1262.26      142.820      181.842      235.238      270.583      339.105      359.840     -1.00000
      426.000      434.000      48.0242      65.4470      61.3776      89.3157      141.377      194.234      323.739      584.103      931.028      1695.92      3563.96      6266.75      11360.2      23872.5      81905.1     -1.00000
      1014.00      619.000      67.7546      47.6144      96.0977      102.520      149.826      219.178      349.753      577.532      976.987      1711.55      3553.35      6377.19      11493.7      24086.6      81905.1     -1.00000
      845.000      827.000      103.525      46.4115      71.6786      121.788      171.269      250.467      387.829      642.246      1051.70      1899.16      3870.94      7010.09      12737.5      26642.7      80465.8     -1.00000
      584.000      626.000      95.8599      72.2490      110.789      118.452      140.154      239.894      381.286      610.951      1037.31      1833.42      3801.59      6767.52      12502.5      25509.6      79746.1     -1.00000
      554.000      173.000      17.0912      20.2959      38.8578      13.1994      34.0856      37.0607      37.2613      65.2602      128.031      115.331      217.103      267.765      314.667      505.561      77614.7     -1.00000
      475.000      445.000      35.1616      80.9207      70.2812      95.3564      114.987      206.145      292.337      540.026      873.219      1566.13      3179.71      5536.21      10124.8      21570.2      76230.7     -1.00000
      149.000      763.000      48.8629      98.0992      125.230      110.923      137.521      228.209      318.392      507.169      857.468      1531.15      3197.79      5670.97      10249.6      20941.4      75538.7     -1.00000
      577.000      599.000      43.4074      75.4414      79.8040      83.7403      80.9422      71.9366      108.242      129.830      191.838      231.878      332.125      449.129      572.513      791.427      74154.7     -1.00000
      631.000      32.0000      11.3620      24.4893      40.6818      72.5597      87.3531      194.322      306.211      638.526      1039.96      1862.53      3878.59      6800.62      12018.3      24430.2      72134.1     -1.00000
      894.000      781.000      65.8475      94.8542      102.472      105.779      152.296      230.597      402.470      599.311      1012.58      1789.60      3646.55      6510.58      11710.0      23905.4      72134.1     -1.00000
      375.000      793.000      57.6495      105.176      86.2375      72.0045      153.181      248.719      387.945      595.791      985.117      1732.73      3594.63      6285.10      11229.4      23208.9      72134.1     -1.00000
      689.000      775.000      75.8734      102.343      124.613      109.223      141.705      196.893      319.904      507.129      830.239      1471.99      3148.78      5384.89      9947.18      20766.8      71442.1     -1.00000
      626.000      890.000      125.753      66.5597      75.1773      129.615      152.244      216.595      365.650      591.812      926.616      1690.52      3427.25      6078.53      11081.9      22837.2      71442.1     -1.00000
      536.000      286.000      61.8926      41.2457      95.0876      105.926      119.224      180.145      334.977      537.269      951.311      1694.08      3471.91      6091.91      10939.3      22387.0      70777.8     -1.00000
      618.000      759.000      31.1613      114.078      95.0375      107.750      136.130      216.664      397.215      565.754      924.703      1628.49      3151.61      5776.46      10402.5      21598.0      70777.8     -1.00000
      860.000      925.000      108.992      105.256      83.2915      133.212      172.534      253.569      368.748      599.066      992.692      1755.08      3496.96      6129.87      11046.4      22460.8      70777.8     -1.00000
      431.000      741.000      69.7517      75.8339      75.3403      118.702      161.937      242.095      377.061      599.675      951.991      1588.73      3259.10      5829.33      10492.7      21583.1      70113.4     -1.00000
      833.000      329.000      57.7844      52.9872      67.1124      81.5639      73.6223      82.3676      124.027      153.720      190.546      259.359      318.894      446.594      571.652      1888.25      68784.8     -1.00000
      298.000      451.000      68.1257      105.949      73.4155      97.1705      126.020      219.066      351.491      578.244      997.451      1808.46      3768.11      6485.81      11643.7      23398.3      68784.8     -1.00000
      193.000      706.000      101.135      61.3807      134.948      118.962      136.650      219.843      352.427      633.073      1043.10      1834.56      3865.22      6863.04      12248.0      25345.0      68784.8     -1.00000
      643.000      148.000      49.8302      52.2182      71.2656      45.9955      115.014      127.203      193.674      320.323      1926.15      1876.19      4750.47      3315.36      17687.5      25735.6      110582.      14.0000
      641.000      14.0000      31.6118      40.8052      34.9131      68.9601      94.0934      167.335      298.677      486.323      880.196      1598.80      3206.70      5626.56      10120.4      20739.8      66819.5     -1.00000
      995.000      339.000      51.8129      72.0006      72.8896      76.8647      116.165      200.148      328.077      571.272      993.420      1762.56      3595.77      6248.41      11141.3      22464.2      66819.5     -1.00000
      1007.00      848.000      53.8164      110.860      114.101      95.3429      142.597      163.845      310.716      459.878      910.608      1289.36      2594.77      5946.11      9415.65      19993.3      66819.5     -1.00000
      278.000      187.000      33.8712      33.3444      41.9179      79.5644      56.5778      189.447      284.648      453.316      827.946      1475.94      3041.47      5251.18      9500.02      19721.6      66155.2     -1.00000
      35.0000      307.000      62.2631      69.5830      83.7969      107.291      120.161      254.321      435.132      762.624      1302.71      2323.55      4859.12      8681.41      15587.8      32724.7      66155.2     -1.00000
      677.000      370.000      45.3128      81.9200      65.7538      72.9161      88.2532      158.980      310.428      486.582      846.185      1422.45      2900.83      5157.03      9396.70      19488.1      66155.2     -1.00000
