PDS_VERSION_ID         = PDS3
RECORD_TYPE            = STREAM
OBJECT                 = TEXT
  PUBLICATION_DATE     = 2014-02-19
  INTERCHANGE_FORMAT   = ASCII
  NOTE                 = "WAC hot pixel file for epoch 2006.9."
END_OBJECT             = TEXT
END

WAC hot pixel list. Lines 1 and 2 are column headings giving exposure time 
(sec) and gain state (e-/DN), respectively, of source dark images. Starting 
on line 3, first two columns indicate x and y value of hot pixel; columns 3 
through N-1 give median electron counts for each exposure bin, and last (Nth) 
column contains either the index of the exposure bin where saturation first 
occurs, or -1 if no saturation.

\begindata
      0.00000      0.00000      0.00000      10.0000      32.0000      100.000      560.000      1200.00
      0.00000      0.00000      11.7270      11.7270      27.6800      27.6800      27.6800      27.6800
      268.000      77.0000      149.667      13536.6      39841.2      100788.      111369.      111366.      4.00000
      554.000      174.000      193.152      13019.0      38573.2      98242.7      111369.      111368.      4.00000
      833.000      328.000      189.720      13736.5      40430.3      98493.2      111366.      111370.      4.00000
      577.000      598.000      207.235      6487.52      21255.8      61847.4      111370.      111367.      4.00000
      259.000      132.000      112.427      6108.67      19123.7      54804.0      111367.      111368.      4.00000
      685.000      585.000      230.823      7792.18      23463.7      58786.1      111369.      111368.      4.00000
      561.000      116.000      101.329      5997.27      18283.4      49256.6      111371.      111364.      4.00000
      947.000      51.0000     -2.03245      4809.29      15026.0      44543.8      111370.      111367.      4.00000
      962.000      403.000      133.331      5428.89      16873.8      46170.6      111366.      111373.      4.00000
      162.000      1018.00      245.948      3888.11      13137.1      38741.3      111372.      111365.      4.00000
      365.000      612.000      165.264      3506.75      11192.5      33444.6      111371.      111369.      4.00000
      224.000      420.000      55.5654      3159.27      10185.0      31404.6      111367.      111371.      4.00000
      461.000      293.000      51.0727      2101.52      6940.31      21774.0      107603.      111364.      5.00000
      792.000      1007.00      208.401      2550.12      8358.56      25778.7      108221.      111377.      5.00000
      906.000      454.000      155.846      2557.62      8186.84      24597.0      104021.      111364.      5.00000
      971.000      821.000      197.087      2404.26      7967.77      24437.4      104095.      111366.      5.00000
      615.000      629.000      163.051      2302.14      7595.04      23529.8      102498.      111373.      5.00000
      281.000      753.000      184.023      3275.24      10127.8      31408.0      103206.      111361.      5.00000
      707.000      655.000      155.977      2658.54      8635.03      25593.2      96826.9      111361.      5.00000
      787.000      651.000      158.730      1988.76      5796.41      20033.8      89103.4      111368.      5.00000
      268.000      78.0000      50.7687      70.8746      205.636      306.000      75024.1      111370.      5.00000
      662.000      623.000      137.431      1480.66      4904.59      15507.3      83868.9      111373.      5.00000
      630.000      1000.00      205.874      1945.87      6440.65      19693.4      85679.5      111371.      5.00000
      594.000      989.000      172.025      419.309      1221.88      3845.48      78585.5      43222.7     -1.00000
      198.000      682.000      141.267      2523.30      7980.83      22887.2      81353.3      111358.      5.00000
      950.000      163.000      49.3108      1585.59      4912.39      15187.2      76869.4      111370.      5.00000
      27.0000      157.000      55.8479      1760.05      5498.84      16692.6      78054.0      111366.      5.00000
      378.000      87.0000      11.4668      1935.07      6165.98      18102.7      76988.6      111366.      5.00000
      518.000      314.000      97.1796      1802.32      5692.79      17103.1      76310.0      111368.      5.00000
      196.000      915.000      160.082      1516.45      5080.73      16195.3      75895.4      111361.      5.00000
      339.000      693.000      161.009      1442.45      4673.08      14658.3      74720.9      111361.      5.00000
      1007.00      848.000      176.377      1356.83      4391.89      13993.8      70981.7      111370.      5.00000
      822.000      465.000      138.087      1447.72      4881.27      14767.2      70205.3      111369.      5.00000
      293.000      642.000      148.348      1559.56      5216.07      15850.5      70009.1      111366.      5.00000
      204.000      490.000      119.419      1730.76      5475.52      16341.8      69573.4      110187.      5.00000
      569.000      760.000      164.115      1519.19      4894.77      14972.3      66954.2      110002.      5.00000
      372.000      333.000      115.933      1197.33      3975.98      12215.7      65017.0      111367.      5.00000
      107.000      183.000      74.2963      1657.28      5158.76      15396.2      68112.5      111360.      5.00000
      554.000      175.000      58.4874      125.011      250.759      352.099      57506.3      111367.      5.00000
      625.000      654.000      162.220      1335.96      4421.90      13887.6      65450.4      111277.      5.00000
      631.000      4.00000      11.9526      1467.34      4614.93      13840.5      66076.9      111366.      5.00000
      139.000      210.000      58.6164      1657.84      4949.90      14797.6      67078.4      111300.      5.00000
      148.000      20.0000      19.9062      1395.98      4426.35      13432.9      64151.7      111367.      5.00000
      470.000      151.000      71.7835      1152.29      3568.14      11072.5      57554.2      110880.      5.00000
      91.0000      394.000      80.5582      1127.38      3700.11      11518.7      59526.9      108755.     -1.00000
      788.000      101.000      28.0651      1324.60      4129.86      12487.6      60874.2      107387.     -1.00000
      547.000      370.000      98.7772      1740.15      5423.13      16289.0      67357.2      106944.     -1.00000
      22.0000      494.000      108.788      1093.31      3615.20      11434.0      59633.0      106856.     -1.00000
      31.0000      908.000      197.750      1631.44      5219.01      16172.8      74128.2      106975.     -1.00000
      856.000      823.000      157.922      1309.20      4521.99      14226.1      63283.4      105122.     -1.00000
      176.000      663.000      149.857      1122.26      3500.64      10803.1      56631.6      104902.     -1.00000
      378.000      741.000      178.193      1246.11      4016.23      12375.0      59634.3      104592.     -1.00000
      834.000      993.000      226.131      1239.76      4036.77      12445.4      59624.0      104275.     -1.00000
      775.000      945.000      206.376      1355.12      4313.67      13464.0      61651.7      101999.     -1.00000
      460.000      163.000      66.9013      1116.86      3452.00      10646.5      53377.6      100132.     -1.00000
      1000.00      61.0000      9.36176      1067.96      3418.13      10437.0      52581.1      99929.4     -1.00000
      270.000      26.0000      20.3803      1116.09      3505.85      10660.5      53824.9      99222.2     -1.00000
      64.0000      541.000      104.584      1355.83      4301.16      13163.0      59788.5      99135.7     -1.00000
      258.000      770.000      161.455      1825.73      5925.35      17688.6      66461.3      98859.8     -1.00000
      705.000      195.000      53.6278      1258.44      3900.27      11748.8      55736.6      98246.9     -1.00000
      54.0000      76.0000      30.2073      1454.12      4634.88      13449.4      57512.4      95039.3     -1.00000
      718.000      160.000      30.0087      974.070      3196.27      9647.25      50015.6      93328.8     -1.00000
      354.000      280.000      59.2488      814.914      2609.76      7994.21      44655.7      93299.4     -1.00000
      44.0000      6.00000      33.6588      1080.03      3489.06      10547.0      51108.3      92536.8     -1.00000
      896.000      73.0000     -2.04789      1133.23      3673.65      11021.9      52292.9      92219.3     -1.00000
      208.000      776.000      174.302      1020.49      3150.93      9789.11      48381.1      88220.8     -1.00000
      995.000      339.000      33.7257      1220.75      3718.88      11297.8      51171.0      87186.5     -1.00000
      999.000      454.000      24.1066      810.074      2588.20      8028.96      43056.1      85982.4     -1.00000
      689.000      775.000      158.409      805.872      2615.95      8056.63      43112.4      85452.4     -1.00000
      95.0000      485.000      128.816      760.827      2555.52      8023.57      42616.3      84548.0     -1.00000
      668.000      920.000      212.447      859.215      2672.42      8625.59      45107.2      84081.8     -1.00000
      268.000      76.0000      24.3438      67.5110      120.810      243.411      16388.0      84653.7     -1.00000
      631.000      32.0000      10.1014      1079.22      3227.01      9824.18      46853.6      82166.3     -1.00000
      375.000      165.000      32.0938      788.740      2486.58      7564.75      40391.7      82223.5     -1.00000
      602.000      231.000      77.7160      892.133      2765.97      8452.51      43044.2      82241.4     -1.00000
      762.000      536.000      92.5876      984.909      3010.70      9315.91      46609.8      82113.3     -1.00000
      349.000      949.000      208.868      869.689      2790.20      8924.88      44730.6      81698.8     -1.00000
      426.000      434.000      115.449      729.248      2325.06      7351.76      40191.6      80830.8     -1.00000
      996.000      806.000      134.436      820.747      2561.01      7942.43      41951.9      81063.2     -1.00000
      845.000      827.000      145.622      821.314      2592.34      8277.11      43577.6      79961.2     -1.00000
      860.000      925.000      167.598      913.022      2755.45      8587.54      42872.1      79268.1     -1.00000
      193.000      706.000      130.905      821.466      2595.65      7995.53      41741.5      78884.7     -1.00000
      293.000      379.000      72.3046      908.480      3000.38      9078.10      43957.7      78369.6     -1.00000
      358.000      225.000      60.6575      773.795      2238.31      6900.79      37676.2      77549.9     -1.00000
      577.000      599.000      122.711      125.745      342.811      526.295      9222.76      77794.5     -1.00000
      117.000      400.000      106.011      750.234      2490.04      7684.19      40162.1      77560.8     -1.00000
      570.000      705.000      155.124      834.146      2540.55      8029.55      41287.0      77778.7     -1.00000
      947.000      587.000      137.172      744.755      2400.06      7404.18      38975.0      77497.0     -1.00000
      486.000      353.000      98.4013      891.763      2672.23      8168.47      41006.2      76461.5     -1.00000
      149.000      763.000      169.416      836.020      2606.81      8348.82      41313.6      76545.9     -1.00000
      806.000      136.000      33.9941      763.382      2242.16      6908.62      37203.0      75425.9     -1.00000
      842.000      225.000      41.6559      842.731      2677.50      8152.22      40984.6      75250.8     -1.00000
      750.000      336.000      92.6284      721.099      2318.35      7283.16      37810.4      73135.8     -1.00000
      113.000      103.000      14.8190      941.827      2864.54      8423.84      40030.4      72532.8     -1.00000
      800.000      542.000      95.8128      793.411      2508.88      7607.33      38562.3      72371.6     -1.00000
      626.000      890.000      183.869      732.202      2279.65      7177.12      37848.8      71708.3     -1.00000
      894.000      781.000      168.748      790.629      2443.22      7632.88      38740.9      71464.9     -1.00000
      536.000      286.000      59.6719      784.340      2366.23      7318.85      37312.6      70894.1     -1.00000
      585.000      354.000      95.0205      668.756      2120.75      6457.29      34665.8      70291.5     -1.00000
      265.000      275.000      38.8066      880.867      2535.73      7714.48      38265.8      70173.5     -1.00000
      880.000      959.000      186.309      628.807      1956.35      5994.76      33972.9      70593.6     -1.00000
      833.000      329.000      83.5328      142.770      334.825      594.203      34680.0      69015.1     -1.00000
      519.000      951.000      207.454      648.913      2066.78      6421.95      34612.0      69372.1     -1.00000
      493.000      874.000      167.119      828.990      2507.40      7737.10      37799.8      68954.2     -1.00000
      909.000      161.000      20.6031      621.389      2181.47      6176.94      32398.9      68650.2     -1.00000
      431.000      741.000      166.466      753.928      2224.10      6712.56      35219.4      67375.7     -1.00000
      828.000      871.000      174.051      722.642      2208.49      6772.05      34617.1      66884.8     -1.00000
      677.000      370.000      34.2790      677.859      2017.93      6124.90      33024.6      66005.7     -1.00000
      214.000      936.000      202.632      661.033      1825.34      5899.93      33341.1      66022.3     -1.00000
      554.000      173.000      41.9734      67.4759      188.443      296.774      5756.49      65474.0     -1.00000
      333.000      901.000      160.845      667.580      2029.15      6250.34      33295.9      65888.9     -1.00000
      278.000      187.000      24.9109      685.166      2095.58      6279.85      33606.7      65112.2     -1.00000
      356.000      70.0000      22.0205      727.724      2316.62      6750.02      35134.0      64763.1     -1.00000
      813.000      18.0000      9.64506      773.589      2380.81      7177.70      34770.1      64389.2     -1.00000
      990.000      458.000      61.4124      542.119      1846.10      5780.16      31700.5      64314.5     -1.00000
      503.000      279.000      48.9990      644.484      1838.74      5712.19      31259.5      63301.2     -1.00000
      289.000      420.000      108.561      839.224      2490.74      7474.85      35165.4      63070.1     -1.00000
      1002.00      897.000      204.393      642.555      2006.50      6280.76      33344.2      63364.4     -1.00000
      497.000      390.000      96.5604      707.411      2143.63      6507.29      33259.2      62496.5     -1.00000
      597.000      612.000      152.657      838.114      2628.38      7881.95      35888.2      61659.8     -1.00000
      1014.00      619.000      103.885      593.772      1782.85      5521.97      29837.6      60722.5     -1.00000
      888.000      986.000      183.343      623.159      1757.41      5631.31      30436.9      60928.8     -1.00000
      933.000      495.000      117.794      586.990      1819.25      5698.42      30080.2      60448.9     -1.00000
      674.000      645.000      148.778      735.291      2261.79      7204.02      33999.8      60520.9     -1.00000
      524.000      366.000      49.1049      680.444      2236.33      6545.21      32196.0      60084.1     -1.00000
      683.000      149.000      25.9192      622.372      1992.35      6176.75      30883.8      59766.3     -1.00000
      690.000      144.000      46.0987      681.540      2165.58      6441.43      32189.9      59693.6     -1.00000
      783.000      337.000      64.0355      629.753      1927.46      5707.87      29700.4      59753.7     -1.00000
      971.000      755.000      127.266      582.197      1740.59      5322.74      29727.7      60011.2     -1.00000
      206.000      104.000      16.2524      608.663      1978.26      5904.66      30611.9      59351.1     -1.00000
      75.0000      421.000      31.6653      641.265      1921.08      5687.66      30710.0      59455.5     -1.00000
      601.000      457.000      131.301      626.174      1880.96      5571.63      29635.5      59219.1     -1.00000
      643.000      899.000      190.196      496.506      1589.14      4876.85      27566.4      59475.9     -1.00000
      94.0000      466.000      90.1993      631.594      1836.48      5767.29      30170.0      59051.4     -1.00000
      529.000      804.000      164.855      711.576      1999.84      5767.99      31638.8      59125.9     -1.00000
      1002.00      695.000      129.745      594.043      1923.36      5786.21      29676.2      58609.2     -1.00000
      97.0000      627.000      125.781      632.762      1931.67      5771.16      30042.0      58007.2     -1.00000
      952.000      695.000      129.745      568.583      1648.67      5142.70      28471.1      57917.4     -1.00000
      911.000      112.000      40.3970      587.006      1849.00      5217.32      28019.6      57357.6     -1.00000
      899.000      837.000      152.234      546.432      1687.34      5278.26      28608.2      57504.2     -1.00000
      449.000      680.000      107.634      607.670      1751.62      5524.21      29631.0      57388.8     -1.00000
      814.000      283.000      3.36896      699.699      2060.83      6161.46      30392.8      56537.0     -1.00000
      537.000      652.000      146.848      564.574      1716.92      5322.15      28290.0      56637.1     -1.00000
      538.000      317.000      40.7195      634.345      1877.12      5815.50      29562.2      56330.2     -1.00000
      475.000      445.000      116.282      574.222      1790.86      5281.66      27707.8      55741.4     -1.00000
      292.000      308.000      77.0436      532.610      1630.37      4900.61      26525.5      55654.8     -1.00000
      878.000      293.000      67.8774      577.365      1783.10      5319.35      27893.9      55619.4     -1.00000
      911.000      478.000      90.3710      623.519      1930.54      5693.72      28997.4      55654.0     -1.00000
      991.000      946.000      176.581      549.419      1676.87      5243.90      28428.9      55770.6     -1.00000
      441.000      22.0000      16.5497      504.093      1647.10      4833.22      26274.1      55141.6     -1.00000
      515.000      681.000      155.250      633.172      1832.96      5709.92      29174.0      55128.8     -1.00000
      583.000      9.00000      19.4845      505.165      1571.57      4750.28      25824.4      54583.7     -1.00000
      641.000      14.0000     -5.89905      562.521      1832.52      5406.73      27540.1      54145.9     -1.00000
      213.000      240.000      40.5553      616.893      1785.67      5240.95      27433.3      54247.7     -1.00000
      694.000      40.0000      7.06012      659.472      2029.58      5735.07      29177.9      52963.6     -1.00000
      604.000      268.000      60.8770      498.444      1482.13      4604.05      24875.3      52614.9     -1.00000
      87.0000      181.000      30.9473      569.889      1643.79      5077.13      26181.6      51811.8     -1.00000
      735.000      955.000      161.965      559.227      1711.52      5175.10      26987.4      52068.7     -1.00000
      164.000      894.000      172.664      537.698      1759.41      5308.61      27090.5      51945.5     -1.00000
      73.0000      633.000      140.343      492.343      1479.49      4639.25      25187.7      51496.1     -1.00000
      979.000      968.000      148.378      558.787      1703.64      5246.87      26855.8      51613.1     -1.00000
