PDS_VERSION_ID         = PDS3
RECORD_TYPE            = STREAM
OBJECT                 = TEXT
  PUBLICATION_DATE     = 2014-04-25
  INTERCHANGE_FORMAT   = ASCII
  NOTE                 = "System transmission vs. wavelength."
END_OBJECT             = TEXT
END
    
The systrans directory contains the non-wavelength-integrated system 
transmission values (QE*optics*filter1*filter2) for each filter combination. 
The naming convention for these files is as follows:

<camera><filter 1><filter 2>_systrans.tab

where <camera> is "issna" or "isswa," and <filter 1> and <filter 2> represent
the filter names. For polarized filter combinations, values are given for the
parallel orientation of the filter (full transmission), with values for the 
perpendicular (blocking) orientation provided in files with subscript 
"_b_systrans.tab". 

Columns in systrans files are as follows:

 1st column: Wavelength (nm)  
 2nd column: Transmitted Flux
 3rd column: Transmitted Flux * Solar Flux (phot per cm^2-s-angstrom at 1 AU)

The solar spectrum used for this calculation is provided in solarflux.tab.

\begindata
       619.00000  1.15856e-10      6165.87
       619.10000  1.15856e-10      6161.23
       619.20000  1.15856e-10      6158.92
       619.30000  1.15856e-10      6157.76
       619.40000  1.15856e-10      6157.76
       619.50000  2.02397e-10      10761.5
       619.60000  2.02397e-10      10799.9
       619.70000  2.02397e-10      10834.3
       619.80000  2.02397e-10      10864.7
       619.90000  2.02397e-10      10891.0
       620.00000  2.02397e-10      10911.2
       620.10000  2.02397e-10      10927.4
       620.20000  2.02397e-10      10939.6
       620.30000  2.02397e-10      10947.7
       620.40000  2.02397e-10      10949.7
       620.50000  2.71743e-10      14701.3
       620.60000  2.71743e-10      14641.5
       620.70000  2.71743e-10      14584.4
       620.80000  2.71743e-10      14535.5
       620.90000  2.71743e-10      14492.0
       621.00000  2.71743e-10      14454.0
       621.10000  2.71743e-10      14421.4
       621.20000  2.71743e-10      14396.9
       621.30000  2.71394e-10      14356.7
       621.40000  2.71394e-10      14340.5
       621.50000  3.57453e-10      18877.1
       621.60000  3.57453e-10      18941.4
       621.70000  3.57453e-10      18998.6
       621.80000  3.57453e-10      19045.1
       621.90000  3.57453e-10      19088.0
       622.00000  3.57453e-10      19120.2
       622.10000  3.57453e-10      19145.2
       622.20000  3.57453e-10      19159.5
       622.30000  3.57453e-10      19170.2
       622.40000  3.57453e-10      19170.2
       622.50000  5.73553e-10      30748.2
       622.60000  5.73553e-10      30725.2
       622.70000  5.73553e-10      30690.8
       622.80000  5.73553e-10      30645.0
       622.90000  5.73553e-10      30581.9
       623.00000  5.73553e-10      30513.0
       623.10000  5.73553e-10      30427.0
       623.20000  5.73553e-10      30323.8
       623.30000  5.73553e-10      30214.8
       623.40000  5.73553e-10      30088.6
       623.50000  7.67960e-10      40110.5
       623.60000  7.67960e-10      40102.9
       623.70000  7.67960e-10      40102.9
       623.80000  7.66306e-10      40001.2
       623.90000  7.66306e-10      39993.5
       624.00000  7.66306e-10      39978.2
       624.10000  7.66306e-10      39955.2
       624.20000  7.66306e-10      39932.2
       624.30000  7.66306e-10      39909.2
       624.40000  7.66306e-10      39878.6
       624.50000  1.39314e-09      72443.4
       624.60000  1.39314e-09      72164.8
       624.70000  1.39314e-09      71941.9
       624.80000  1.39314e-09      71746.9
       624.90000  1.39314e-09      71593.6
       625.00000  1.39314e-09      71482.2
       625.10000  1.39314e-09      71412.5
       625.20000  1.39314e-09      71370.7
       625.30000  1.39314e-09      71384.6
       625.40000  1.39314e-09      71426.4
       625.50000  5.46356e-09      280444.
       625.60000  5.46356e-09      280881.
       625.70000  5.46356e-09      281537.
       625.80000  5.46356e-09      282302.
       625.90000  5.46356e-09      283231.
       626.00000  5.46356e-09      284323.
       626.10000  5.46356e-09      285580.
       626.20000  5.46356e-09      286946.
       626.30000  5.45494e-09      288075.
       626.40000  5.45494e-09      289766.
       626.50000  1.49836e-08      800875.
       626.60000  1.49836e-08      801025.
       626.70000  1.49836e-08      801175.
       626.80000  1.49836e-08      801325.
       626.90000  1.49836e-08      801475.
       627.00000  1.49836e-08      801625.
       627.10000  1.49836e-08      801774.
       627.20000  1.49836e-08      801774.
       627.30000  1.49836e-08      801924.
       627.40000  1.49836e-08      802074.
       627.50000  1.47037e-08      787236.
       627.60000  1.47037e-08      787824.
       627.70000  1.47037e-08      788266.
       627.80000  1.47037e-08      788560.
       627.90000  1.47037e-08      788854.
       628.00000  1.47037e-08      789001.
       628.10000  1.47037e-08      789148.
       628.20000  1.47037e-08      789148.
       628.30000  1.47037e-08      789001.
       628.40000  1.47037e-08      788854.
       628.50000  5.17090e-08  2.77316e+06
       628.60000  5.17090e-08  2.77160e+06
       628.70000  5.17090e-08  2.77005e+06
       628.80000  5.15997e-08  2.76213e+06
       628.90000  5.15997e-08  2.75955e+06
       629.00000  5.15997e-08  2.75697e+06
       629.10000  5.15997e-08  2.75388e+06
       629.20000  5.15997e-08  2.75078e+06
       629.30000  5.15997e-08  2.74717e+06
       629.40000  5.15997e-08  2.74304e+06
       629.50000  5.50256e-08  2.92076e+06
       629.60000  5.50256e-08  2.91471e+06
       629.70000  5.50256e-08  2.90866e+06
       629.80000  5.50256e-08  2.90315e+06
       629.90000  5.50256e-08  2.89820e+06
       630.00000  5.50256e-08  2.89325e+06
       630.10000  5.50256e-08  2.88830e+06
       630.20000  5.50256e-08  2.88444e+06
       630.30000  5.50256e-08  2.88004e+06
       630.40000  5.50256e-08  2.87674e+06
       630.50000  6.30224e-08  3.29103e+06
       630.60000  6.30224e-08  3.28725e+06
       630.70000  6.30224e-08  3.28410e+06
       630.80000  6.30224e-08  3.28157e+06
       630.90000  6.30224e-08  3.27905e+06
       631.00000  6.30224e-08  3.27716e+06
       631.10000  6.30224e-08  3.27905e+06
       631.20000  6.30224e-08  3.28094e+06
       631.30000  6.30193e-08  3.28330e+06
       631.40000  6.30193e-08  3.28520e+06
       631.50000  9.56661e-09      498994.
       631.60000  9.56661e-09      499281.
       631.70000  9.56661e-09      499568.
       631.80000  9.56661e-09      499759.
       631.90000  9.56661e-09      500046.
       632.00000  9.56661e-09      500333.
       632.10000  9.56661e-09      500620.
       632.20000  9.56661e-09      500812.
       632.30000  9.56661e-09      501099.
       632.40000  9.56661e-09      501386.
       632.50000  1.48747e-08      779878.
       632.60000  1.48747e-08      780175.
       632.70000  1.48747e-08      780622.
       632.80000  1.48747e-08      780919.
       632.90000  1.48747e-08      781217.
       633.00000  1.48747e-08      781663.
       633.10000  1.48747e-08      781960.
       633.20000  1.48747e-08      782258.
       633.30000  1.48747e-08      782555.
       633.40000  1.48747e-08      782853.
       633.50000  8.76943e-08  4.61710e+06
       633.60000  8.76943e-08  4.61886e+06
       633.70000  8.76943e-08  4.62061e+06
       633.80000  8.76808e-08  4.62078e+06
       633.90000  8.76808e-08  4.62253e+06
       634.00000  8.76808e-08  4.62429e+06
       634.10000  8.76808e-08  4.62516e+06
       634.20000  8.76808e-08  4.62692e+06
       634.30000  8.76808e-08  4.62780e+06
       634.40000  8.76808e-08  4.62955e+06
       634.50000  7.68078e-09      405622.
       634.60000  7.68078e-09      405699.
       634.70000  7.68078e-09      405853.
       634.80000  7.68078e-09      405929.
       634.90000  7.68078e-09      406006.
       635.00000  7.68078e-09      406083.
       635.10000  7.68078e-09      406160.
       635.20000  7.68078e-09      406160.
       635.30000  7.68078e-09      406237.
       635.40000  7.68078e-09      406237.
       635.50000  1.92247e-08  1.01699e+06
       635.60000  1.92247e-08  1.01718e+06
       635.70000  1.92247e-08  1.01718e+06
       635.80000  1.92247e-08  1.01737e+06
       635.90000  1.92247e-08  1.01737e+06
       636.00000  1.92247e-08  1.01756e+06
       636.10000  1.92247e-08  1.01756e+06
       636.20000  1.92247e-08  1.01776e+06
       636.30000  1.91108e-08  1.01172e+06
       636.40000  1.91108e-08  1.01192e+06
       636.50000  6.18255e-08  3.27366e+06
       636.60000  6.18255e-08  3.27428e+06
       636.70000  6.18255e-08  3.27428e+06
       636.80000  6.18255e-08  3.27490e+06
       636.90000  6.18255e-08  3.27490e+06
       637.00000  6.18255e-08  3.27490e+06
       637.10000  6.18255e-08  3.27551e+06
       637.20000  6.18255e-08  3.27551e+06
       637.30000  6.18255e-08  3.27613e+06
       637.40000  6.18255e-08  3.27613e+06
       637.50000  8.90724e-08  4.71994e+06
       637.60000  8.90724e-08  4.72084e+06
       637.70000  8.90724e-08  4.72084e+06
       637.80000  8.90724e-08  4.72173e+06
       637.90000  8.90724e-08  4.72173e+06
       638.00000  8.90724e-08  4.72173e+06
       638.10000  8.90724e-08  4.72262e+06
       638.20000  8.90724e-08  4.72262e+06
       638.30000  8.90724e-08  4.72262e+06
       638.40000  8.90724e-08  4.72351e+06
       638.50000  1.88870e-08  1.00158e+06
       638.60000  1.88870e-08  1.00158e+06
       638.70000  1.88870e-08  1.00177e+06
       638.80000  1.87631e-08      995197.
       638.90000  1.87631e-08      995197.
       639.00000  1.87631e-08      995197.
       639.10000  1.87631e-08      993696.
       639.20000  1.87631e-08      992195.
       639.30000  1.87631e-08      990694.
       639.40000  1.87631e-08      989381.
       639.50000  4.02608e-08  2.11973e+06
       639.60000  4.02608e-08  2.11731e+06
       639.70000  4.02608e-08  2.11450e+06
       639.80000  4.02608e-08  2.11208e+06
       639.90000  4.02608e-08  2.11007e+06
       640.00000  4.02608e-08  2.10765e+06
       640.10000  4.02608e-08  2.10564e+06
       640.20000  4.02608e-08  2.10403e+06
       640.30000  4.02608e-08  2.10242e+06
       640.40000  4.02608e-08  2.10081e+06
       640.50000  2.87363e-08  1.49831e+06
       640.60000  2.87363e-08  1.49745e+06
       640.70000  2.87363e-08  1.49659e+06
       640.80000  2.87363e-08  1.49601e+06
       640.90000  2.87363e-08  1.49515e+06
       641.00000  2.87363e-08  1.49486e+06
       641.10000  2.87363e-08  1.49544e+06
       641.20000  2.87363e-08  1.49601e+06
       641.30000  2.85419e-08  1.48646e+06
       641.40000  2.85419e-08  1.48703e+06
       641.50000  2.26394e-08  1.17996e+06
       641.60000  2.26394e-08  1.18042e+06
       641.70000  2.26394e-08  1.18087e+06
       641.80000  2.26394e-08  1.18132e+06
       641.90000  2.26394e-08  1.18178e+06
       642.00000  2.26394e-08  1.18223e+06
       642.10000  2.26394e-08  1.18245e+06
       642.20000  2.26394e-08  1.18291e+06
       642.30000  2.26394e-08  1.18336e+06
       642.40000  2.26394e-08  1.18381e+06
       642.50000  1.19734e-08      626328.
       642.60000  1.19734e-08      626568.
       642.70000  1.19734e-08      626807.
       642.80000  1.19734e-08      627046.
       642.90000  1.19734e-08      627286.
       643.00000  1.19734e-08      627525.
       643.10000  1.19734e-08      627645.
       643.20000  1.19734e-08      627885.
       643.30000  1.19734e-08      628124.
       643.40000  1.19734e-08      628364.
       643.50000  3.97002e-09      208426.
       643.60000  3.97002e-09      208506.
       643.70000  3.97002e-09      208545.
       643.80000  3.96473e-09      208347.
       643.90000  3.96473e-09      208426.
       644.00000  3.96473e-09      208505.
       644.10000  3.96473e-09      208585.
       644.20000  3.96473e-09      208624.
       644.30000  3.96473e-09      208704.
       644.40000  3.96473e-09      208783.
       644.50000  2.54065e-11      1338.41
       644.60000  2.54065e-11      1338.67
       644.70000  2.54065e-11      1339.17
       644.80000  2.54065e-11      1339.68
       644.90000  2.54065e-11      1340.19
       645.00000  2.54065e-11      1340.45
       645.10000  2.54065e-11      1340.19
       645.20000  2.54065e-11      1339.68
       645.30000  2.54065e-11      1339.43
       645.40000  2.54065e-11      1338.92
       645.50000  1.40299e-09      73895.5
       645.60000  1.40299e-09      73867.4
       645.70000  1.40299e-09      73839.4
       645.80000  1.40299e-09      73797.3
       645.90000  1.40299e-09      73755.2
       646.00000  1.40299e-09      73713.1
       646.10000  1.40299e-09      73671.0
       646.20000  1.40299e-09      73628.9
       646.30000  1.40213e-09      73527.7
       646.40000  1.40213e-09      73471.6
       646.50000  1.49947e-10      7852.73
       646.60000  1.49947e-10      7845.23
       646.70000  1.49947e-10      7839.24
       646.80000  1.49947e-10      7833.24
       646.90000  1.49947e-10      7825.74
       647.00000  1.49947e-10      7819.74
       647.10000  1.49947e-10      7798.75
       647.20000  1.49947e-10      7779.26
       647.30000  1.49947e-10      7761.26
       647.40000  1.49947e-10      7743.27
       647.50000  4.17832e-10      21530.9
       647.60000  4.17832e-10      21493.3
       647.70000  4.17832e-10      21451.5
       647.80000  4.17832e-10      21418.1
       647.90000  4.17832e-10      21384.7
       648.00000  4.17832e-10      21355.4
       648.10000  4.17832e-10      21330.3
       648.20000  4.17832e-10      21309.4
       648.30000  4.17832e-10      21288.6
       648.40000  4.17832e-10      21271.8
       648.50000  4.20688e-10      21404.6
       648.60000  4.20688e-10      21396.2
       648.70000  4.20688e-10      21387.8
       648.80000  4.21123e-10      21405.7
       648.90000  4.21123e-10      21405.7
       649.00000  4.21123e-10      21409.9
       649.10000  4.21123e-10      21414.1
       649.20000  4.21123e-10      21426.7
       649.30000  4.21123e-10      21435.2
       649.40000  4.21123e-10      21452.0
       649.50000  8.48733e-11      4327.69
       649.60000  8.48733e-11      4331.94
       649.70000  8.48733e-11      4337.03
       649.80000  8.48733e-11      4342.97
       649.90000  8.48733e-11      4348.91
       650.00000  8.48733e-11      4355.70
       650.10000  8.48733e-11      4363.34
       650.20000  8.48733e-11      4371.83
       650.30000  8.48733e-11      4381.16
       650.40000  8.48733e-11      4390.50
       650.50000  1.38203e-10      7165.80
       650.60000  1.38203e-10      7183.77
       650.70000  1.38203e-10      7201.74
       650.80000  1.38203e-10      7222.47
       650.90000  1.38203e-10      7243.20
       651.00000  1.38203e-10      7265.31
       651.10000  1.38203e-10      7270.84
       651.20000  1.38203e-10      7276.37
       651.30000  1.38029e-10      7271.38
       651.40000  1.38029e-10      7275.52
       651.50000  1.23130e-10      6493.88
       651.60000  1.23130e-10      6495.11
       651.70000  1.23130e-10      6497.58
       651.80000  1.23130e-10      6498.81
       651.90000  1.23130e-10      6498.81
       652.00000  1.23130e-10      6498.81
       652.10000  1.23130e-10      6497.58
       652.20000  1.23130e-10      6496.34
       652.30000  1.23130e-10      6495.11
       652.40000  1.23130e-10      6492.65
       652.50000  1.04181e-10      5490.35
       652.60000  1.04181e-10      5487.22
       652.70000  1.04181e-10      5484.10
       652.80000  1.04181e-10      5478.89
       652.90000  1.04181e-10      5474.72
       653.00000  1.04181e-10      5469.51
       653.10000  1.04181e-10      5465.34
       653.20000  1.04181e-10      5461.18
       653.30000  1.04181e-10      5454.93
       653.40000  1.04181e-10      5448.67
       653.50000  3.67548e-11      1920.07
       653.60000  3.67548e-11      1917.50
       653.70000  3.67548e-11      1914.56
       653.80000  3.67100e-11      1908.92
       653.90000  3.67100e-11      1905.62
       654.00000  3.67100e-11      1901.95
       654.10000  3.67100e-11      1898.28
       654.20000  3.67100e-11      1893.87
       654.30000  3.67100e-11      1889.46
       654.40000  3.67100e-11      1885.06
       654.50000  3.54605e-12      181.628
       654.60000  3.54605e-12      181.132
       654.70000  3.54605e-12      180.600
       654.80000  3.54605e-12      180.068
       654.90000  3.54605e-12      179.501
       655.00000  3.54605e-12      178.898
       655.10000  3.54605e-12      177.196
       655.20000  3.54605e-12      175.565
       655.30000  3.54605e-12      174.040
       655.40000  3.54605e-12      172.621
       655.50000  3.64891e-11      1762.42
       655.60000  3.64891e-11      1749.65
       655.70000  3.64891e-11      1737.61
       655.80000  3.64891e-11      1726.66
       655.90000  3.64891e-11      1716.45
       656.00000  3.64891e-11      1707.32
       656.10000  3.64891e-11      1699.30
       656.20000  3.64891e-11      1692.00
       656.30000  3.64613e-11      1684.51
       656.40000  3.64613e-11      1679.04
       656.50000  5.23558e-12      240.470
       656.60000  5.23558e-12      239.999
       656.70000  5.23558e-12      239.633
       656.80000  5.23558e-12      239.423
       656.90000  5.23558e-12      239.318
       657.00000  5.23558e-12      239.371
       657.10000  5.23558e-12      241.413
       657.20000  5.23558e-12      243.402
       657.30000  5.23558e-12      245.339
       657.40000  5.23558e-12      247.224
       657.50000  2.77628e-12      132.040
       657.60000  2.77628e-12      132.984
       657.70000  2.77628e-12      133.872
       657.80000  2.77628e-12      134.733
       657.90000  2.77628e-12      135.538
       658.00000  2.77628e-12      136.343
       658.10000  2.77628e-12      137.120
       658.20000  2.77628e-12      137.842
       658.30000  2.77628e-12      138.536
       658.40000  2.77628e-12      139.203
       658.50000  2.08372e-11      1049.36
       658.60000  2.08372e-11      1053.95
       658.70000  2.08372e-11      1058.11
       658.80000  2.08156e-11      1061.18
       658.90000  2.08156e-11      1064.93
       659.00000  2.08156e-11      1068.26
       659.10000  2.08156e-11      1071.59
       659.20000  2.08156e-11      1074.71
       659.30000  2.08156e-11      1077.41
       659.40000  2.08156e-11      1079.91
       659.50000  6.04088e-12      314.066
       659.60000  6.04088e-12      314.670
       659.70000  6.04088e-12      315.153
       659.80000  6.04088e-12      315.636
       659.90000  6.04088e-12      315.999
       660.00000  6.04088e-12      316.301
       660.10000  6.04088e-12      316.542
       660.20000  6.04088e-12      316.663
       660.30000  6.04088e-12      316.784
       660.40000  6.04088e-12      316.784
       660.50000  1.59393e-12      83.5698
       660.60000  1.59393e-12      83.5379
       660.70000  1.59393e-12      83.4901
       660.80000  1.59393e-12      83.4104
       660.90000  1.59393e-12      83.3307
       661.00000  1.59393e-12      83.2191
       661.10000  1.59393e-12      83.1713
       661.20000  1.59393e-12      83.1075
       661.30000  1.58997e-12      82.8535
       661.40000  1.58997e-12      82.8058
       661.50000  5.53448e-12      288.070
       661.60000  5.53448e-12      287.959
       661.70000  5.53448e-12      287.793
       661.80000  5.53448e-12      287.682
       661.90000  5.53448e-12      287.572
       662.00000  5.53448e-12      287.461
       662.10000  5.53448e-12      287.350
       662.20000  5.53448e-12      287.240
       662.30000  5.53448e-12      287.184
       662.40000  5.53448e-12      287.129
       662.50000  5.92569e-12      307.306
       662.60000  5.92569e-12      307.306
       662.70000  5.92569e-12      307.247
       662.80000  5.92569e-12      307.188
