PDS_VERSION_ID         = PDS3
RECORD_TYPE            = STREAM
OBJECT                 = TEXT
  PUBLICATION_DATE     = 2014-04-25
  INTERCHANGE_FORMAT   = ASCII
  NOTE                 = "System transmission vs. wavelength."
END_OBJECT             = TEXT
END
    
The systrans directory contains the non-wavelength-integrated system 
transmission values (QE*optics*filter1*filter2) for each filter combination. 
The naming convention for these files is as follows:

<camera><filter 1><filter 2>_systrans.tab

where <camera> is "issna" or "isswa," and <filter 1> and <filter 2> represent
the filter names. For polarized filter combinations, values are given for the
parallel orientation of the filter (full transmission), with values for the 
perpendicular (blocking) orientation provided in files with subscript 
"_b_systrans.tab". 

Columns in systrans files are as follows:

 1st column: Wavelength (nm)  
 2nd column: Transmitted Flux
 3rd column: Transmitted Flux * Solar Flux (phot per cm^2-s-angstrom at 1 AU)

The solar spectrum used for this calculation is provided in solarflux.tab.

\begindata
       661.00000  1.30312e-06  6.80358e+07
       661.10000  1.16932e-06  6.10149e+07
       661.20000  1.03965e-06  5.42075e+07
       661.30000  9.15917e-07  4.77285e+07
       661.40000  8.10793e-07  4.22261e+07
       661.50000  7.15136e-07  3.72228e+07
       661.60000  6.34554e-07  3.30158e+07
       661.70000  5.67516e-07  2.95108e+07
       661.80000  5.01785e-07  2.60828e+07
       661.90000  3.96106e-07  2.05817e+07
       662.00000  3.50314e-07  1.81953e+07
       662.10000  3.10642e-07  1.61285e+07
       662.20000  2.79151e-07  1.44880e+07
       662.30000  2.51511e-07  1.30509e+07
       662.40000  2.23871e-07  1.16144e+07
       662.50000  3.32806e-07  1.72593e+07
       662.60000  2.96502e-07  1.53766e+07
       662.70000  2.65580e-07  1.37703e+07
       662.80000  2.16106e-07  1.12029e+07
       662.90000  1.94919e-07  1.01046e+07
       663.00000  1.75565e-07  9.10128e+06
       663.10000  1.57814e-07  8.18738e+06
       663.20000  1.42811e-07  7.41332e+06
       663.30000  1.29641e-07  6.73484e+06
       663.40000  1.18761e-07  6.17320e+06
       663.50000  8.57942e-08  4.46216e+06
       663.60000  7.78283e-08  4.05018e+06
       663.70000  6.40939e-08  3.33673e+06
       663.80000  5.90233e-08  3.07452e+06
       663.90000  5.39981e-08  2.81384e+06
       664.00000  4.96125e-08  2.58580e+06
       664.10000  4.54096e-08  2.36766e+06
       664.20000  4.13894e-08  2.15846e+06
       664.30000  3.77347e-08  1.96824e+06
       664.40000  3.49937e-08  1.82562e+06
       664.50000  3.21406e-08  1.67678e+06
       664.60000  2.73013e-08  1.42431e+06
       664.70000  2.48359e-08  1.29569e+06
       664.80000  2.28272e-08  1.19089e+06
       664.90000  2.15488e-08  1.12420e+06
       665.00000  1.98140e-08  1.03350e+06
       665.10000  1.84443e-08      961872.
       665.20000  1.68921e-08      880754.
       665.30000  1.58877e-08      828067.
       665.40000  1.45181e-08      756392.
       665.50000  6.47892e-09      337422.
       665.60000  5.97703e-09      311164.
       665.70000  5.61202e-09      291994.
       665.80000  5.11014e-09      265778.
       665.90000  4.69950e-09      244280.
       666.00000  4.38012e-09      227503.
       666.10000  4.19761e-09      217898.
       666.20000  3.92385e-09      203530.
       666.30000  3.64093e-09      188709.
       666.40000  3.18581e-09      164993.
       666.50000  4.24901e-10      21984.4
       666.60000  4.31754e-10      22317.4
       666.70000  3.76928e-10      19464.6
       666.80000  3.76928e-10      19445.7
       666.90000  3.35809e-10      17307.6
       667.00000  3.22102e-10      16581.8
       667.10000  2.67276e-10      13775.4
       667.20000  2.94689e-10      15203.0
       667.30000  2.53570e-10      13094.3
       667.40000  2.19304e-10      11335.8
       667.50000  2.31823e-09      119945.
       667.60000  1.90913e-09      98854.9
       667.70000  1.97732e-09      102465.
       667.80000  1.84095e-09      95453.2
       667.90000  1.77277e-09      91971.1
       668.00000  1.56822e-09      81406.1
       668.10000  1.50003e-09      77911.7
       668.20000  1.22730e-09      63770.5
       668.30000  1.29548e-09      67339.2
       668.40000  1.15912e-09      60262.5
       668.50000  9.52284e-11      4951.87
       668.60000  7.84234e-11      4078.80
       668.70000  8.40250e-11      4370.14
       668.80000  8.38876e-11      4362.99
       668.90000  8.38876e-11      4362.99
       669.00000  5.59250e-11      2908.10
       669.10000  7.27026e-11      3775.44
       669.20000  6.15176e-11      3190.30
       669.30000  5.59250e-11      2896.92
       669.40000  5.03325e-11      2604.21
       669.50000  2.05074e-10      10598.2
       669.60000  1.86431e-10      9623.57
       669.70000  2.05074e-10      10575.7
       669.80000  1.49145e-10      7683.94
       669.90000  1.49145e-10      7676.48
       670.00000  1.30502e-10      6711.71
       670.10000  1.67788e-10      8622.62
       670.20000  1.30502e-10      6701.26
       670.30000  1.30502e-10      6696.04
       670.40000  1.11859e-10      5736.11
       670.50000  1.35888e-10      6964.26
       670.60000  9.05920e-11      4640.12
       670.70000  1.58536e-10      8117.04
       670.80000  9.05920e-11      4636.50
       670.90000  9.05920e-11      4634.69
       671.00000  4.52960e-11      2316.89
       671.10000  9.05920e-11      4631.97
       671.20000  1.32230e-11      676.093
       671.30000  1.13244e-10      5789.05
       671.40000  4.52977e-11      2315.62
       671.50000  1.35809e-10      6942.56
       671.60000  2.71618e-10      13885.1
       671.70000  5.71709e-11      2922.58
       671.80000  4.84255e-11      2475.99
       671.90000  2.03714e-10      10417.9
       672.00000  1.72545e-11      882.743
       672.10000  2.03714e-10      10426.1
       672.20000  1.35809e-10      6953.43
       672.30000  1.35809e-10      6956.14
       672.40000  2.03714e-10      10440.3
       672.50000  1.41593e-11      726.090
       672.60000  4.00349e-11      2054.19
       672.70000  2.00174e-11      1027.69
       672.80000  1.15971e-11      595.859
       672.90000  4.00349e-11      2058.59
       673.00000  6.43400e-12      331.158
       673.10000  1.82040e-11      936.598
       673.20000  9.04547e-12      465.209
       673.30000  1.30339e-11      670.075
       673.40000  1.43477e-11      737.471
       673.50000  5.09322e-13      26.1690
       673.60000  2.76296e-12      141.933
       673.70000  1.15984e-11      595.691
       673.80000  5.00166e-13      25.6785
       673.90000  7.73532e-12      397.054
       674.00000  3.28446e-12      168.558
       674.10000  3.28446e-12      168.525
       674.20000  3.28446e-12      168.493
       674.30000  3.28446e-12      168.460
       674.40000  3.28446e-12      168.427
       674.50000  5.42430e-10      27810.4
       674.60000  5.42430e-10      27810.4
       674.70000  5.42430e-10      27805.0
       674.80000  5.42430e-10      27805.0
       674.90000  5.42430e-10      27799.6
       675.00000  5.42430e-10      27799.6
       675.10000  5.42430e-10      27805.0
       675.20000  5.42430e-10      27810.4
       675.30000  5.42430e-10      27815.8
       675.40000  5.42430e-10      27821.2
       675.50000  4.74333e-10      24328.5
       675.60000  4.74333e-10      24333.3
       675.70000  4.74333e-10      24338.0
       675.80000  4.74333e-10      24338.0
       675.90000  4.74333e-10      24342.7
       676.00000  4.74333e-10      24342.7
       676.10000  4.74333e-10      24347.5
       676.20000  4.74333e-10      24347.5
       676.30000  4.73849e-10      24322.7
       676.40000  4.73849e-10      24322.7
       676.50000  6.31407e-10      32416.4
       676.60000  6.31407e-10      32416.4
       676.70000  6.31407e-10      32416.4
       676.80000  6.31407e-10      32410.1
       676.90000  6.31407e-10      32410.1
       677.00000  6.31407e-10      32410.1
       677.10000  6.31407e-10      32410.1
       677.20000  6.31407e-10      32403.8
       677.30000  6.31407e-10      32403.8
       677.40000  6.31407e-10      32397.5
       677.50000  4.73261e-10      24283.0
       677.60000  4.73261e-10      24278.3
       677.70000  4.73261e-10      24278.3
       677.80000  4.73261e-10      24273.6
       677.90000  4.73261e-10      24268.8
       678.00000  4.73261e-10      24264.1
       678.10000  4.73261e-10      24259.4
       678.20000  4.73261e-10      24254.6
       678.30000  4.73261e-10      24249.9
       678.40000  4.73261e-10      24245.2
       678.50000  5.83964e-12      299.048
       678.60000  5.83964e-12      298.989
       678.70000  5.83964e-12      298.931
       678.80000  5.83920e-12      298.792
       678.90000  5.83920e-12      298.733
       679.00000  5.83920e-12      298.616
       679.10000  5.83920e-12      298.616
       679.20000  5.83920e-12      298.675
       679.30000  5.83920e-12      298.675
       679.40000  5.83920e-12      298.675
       679.50000  2.70071e-10      13814.2
       679.60000  2.70071e-10      13814.2
       679.70000  2.70071e-10      13814.2
       679.80000  2.70071e-10      13814.2
       679.90000  2.70071e-10      13814.2
       680.00000  2.70071e-10      13811.5
       680.10000  2.70071e-10      13811.5
       680.20000  2.70071e-10      13811.5
       680.30000  2.70071e-10      13808.8
       680.40000  2.70071e-10      13808.8
       680.50000  2.70018e-10      13803.3
       680.60000  2.70018e-10      13803.3
       680.70000  2.70018e-10      13800.6
       680.80000  2.70018e-10      13797.9
       680.90000  2.70018e-10      13795.2
       681.00000  2.70018e-10      13795.2
       681.10000  2.70018e-10      13792.5
       681.20000  2.70018e-10      13789.8
       681.30000  2.69993e-10      13788.5
       681.40000  2.69993e-10      13785.8
       681.50000  6.75115e-10      34464.6
       681.60000  6.75115e-10      34457.9
       681.70000  6.75115e-10      34451.1
       681.80000  6.75115e-10      34437.6
       681.90000  6.75115e-10      34430.9
       682.00000  6.75115e-10      34424.1
       682.10000  6.75115e-10      34410.6
       682.20000  6.75115e-10      34397.1
       682.30000  6.75115e-10      34390.4
       682.40000  6.75115e-10      34376.9
       682.50000  2.70099e-10      13748.1
       682.60000  2.70099e-10      13742.7
       682.70000  2.70099e-10      13737.3
       682.80000  2.70099e-10      13731.9
       682.90000  2.70099e-10      13723.7
       683.00000  2.70099e-10      13718.3
       683.10000  2.70099e-10      13712.9
       683.20000  2.70099e-10      13704.8
       683.30000  2.70099e-10      13696.7
       683.40000  2.70099e-10      13688.6
       683.50000  2.70153e-10      13685.9
       683.60000  2.70153e-10      13677.8
       683.70000  2.70153e-10      13669.7
       683.80000  2.69946e-10      13648.5
       683.90000  2.69946e-10      13640.4
       684.00000  2.69946e-10      13632.3
       684.10000  2.69946e-10      13621.5
       684.20000  2.69946e-10      13613.4
       684.30000  2.69946e-10      13602.6
       684.40000  2.69946e-10      13594.5
       684.50000  5.39998e-10      27172.7
       684.60000  5.39998e-10      27151.1
       684.70000  5.39998e-10      27129.5
       684.80000  5.39998e-10      27107.9
       684.90000  5.39998e-10      27080.9
       685.00000  5.39998e-10      27059.3
       685.10000  5.39998e-10      27080.9
       685.20000  5.39998e-10      27107.9
       685.30000  5.39998e-10      27129.5
       685.40000  5.39998e-10      27145.7
       685.50000  5.40105e-10      27172.7
       685.60000  5.40105e-10      27194.3
       685.70000  5.40105e-10      27210.5
       685.80000  5.40105e-10      27226.7
       685.90000  5.40105e-10      27242.9
       686.00000  5.40105e-10      27259.1
       686.10000  5.40105e-10      27275.3
       686.20000  5.40105e-10      27286.1
       686.30000  5.39537e-10      27273.6
       686.40000  5.39537e-10      27284.4
       686.50000  2.69822e-10      13650.3
       686.60000  2.69822e-10      13655.7
       686.70000  2.69822e-10      13661.1
       686.80000  2.69822e-10      13663.8
       686.90000  2.69822e-10      13669.2
       687.00000  2.69822e-10      13671.9
       687.10000  2.69822e-10      13674.6
       687.20000  2.69822e-10      13674.6
       687.30000  2.69822e-10      13674.6
       687.40000  2.69822e-10      13674.6
       687.50000  1.29729e-10      6574.67
       687.60000  1.29729e-10      6574.67
       687.70000  1.29729e-10      6574.67
       687.80000  1.29729e-10      6574.67
       687.90000  1.29729e-10      6574.67
       688.00000  1.29729e-10      6573.37
       688.10000  1.29729e-10      6573.37
       688.20000  1.29729e-10      6573.37
       688.30000  1.29729e-10      6572.07
       688.40000  1.29729e-10      6572.07
       688.50000  6.74822e-10      34179.7
       688.60000  6.74822e-10      34173.0
       688.70000  6.74822e-10      34173.0
       688.80000  6.73961e-10      34122.6
       688.90000  6.73961e-10      34115.9
       689.00000  6.73961e-10      34109.2
       689.10000  6.73961e-10      34102.4
       689.20000  6.73961e-10      34095.7
       689.30000  6.73961e-10      34088.9
       689.40000  6.73961e-10      34082.2
       689.50000  2.69638e-10      13632.9
       689.60000  2.69638e-10      13630.2
       689.70000  2.69638e-10      13624.8
       689.80000  2.69638e-10      13622.1
       689.90000  2.69638e-10      13619.4
       690.00000  2.69638e-10      13614.0
       690.10000  2.69638e-10      13608.6
       690.20000  2.69638e-10      13605.9
       690.30000  2.69638e-10      13600.5
       690.40000  2.69638e-10      13595.1
       690.50000  4.04536e-10      20392.7
       690.60000  4.04536e-10      20384.6
       690.70000  4.04536e-10      20376.5
       690.80000  4.04536e-10      20368.4
       690.90000  4.04536e-10      20360.3
       691.00000  4.04536e-10      20352.2
       691.10000  4.04536e-10      20360.3
       691.20000  4.04536e-10      20364.3
       691.30000  4.04150e-10      20353.0
       691.40000  4.04150e-10      20357.0
       691.50000  4.04241e-10      20365.7
       691.60000  4.04241e-10      20373.7
       691.70000  4.04241e-10      20377.8
       691.80000  4.04241e-10      20381.8
       691.90000  4.04241e-10      20385.9
       692.00000  4.04241e-10      20385.9
       692.10000  4.04241e-10      20389.9
       692.20000  4.04241e-10      20394.0
       692.30000  4.04241e-10      20394.0
       692.40000  4.04241e-10      20394.0
       692.50000  4.04321e-10      20402.0
       692.60000  4.04321e-10      20402.0
       692.70000  4.04321e-10      20402.0
       692.80000  4.04321e-10      20402.0
       692.90000  4.04321e-10      20402.0
       693.00000  4.04321e-10      20398.0
       693.10000  4.04321e-10      20398.0
       693.20000  4.04321e-10      20393.9
       693.30000  4.04321e-10      20389.9
       693.40000  4.04321e-10      20385.9
       693.50000  4.04401e-10      20385.8
       693.60000  4.04401e-10      20381.8
       693.70000  4.04401e-10      20377.7
       693.80000  4.02796e-10      20292.9
       693.90000  4.02796e-10      20284.8
       694.00000  4.02796e-10      20280.8
       694.10000  4.02796e-10      20276.8
       694.20000  4.02796e-10      20268.7
       694.30000  4.02796e-10      20264.7
       694.40000  4.02796e-10      20256.6
       694.50000  2.68584e-10      13501.7
       694.60000  2.68584e-10      13499.0
       694.70000  2.68584e-10      13493.6
       694.80000  2.68584e-10      13488.3
       694.90000  2.68584e-10      13482.9
       695.00000  2.68584e-10      13477.5
       695.10000  2.68584e-10      13472.2
       695.20000  2.68584e-10      13466.8
       695.30000  2.68584e-10      13458.7
       695.40000  2.68584e-10      13453.4
       695.50000  5.37273e-10      26901.3
       695.60000  5.37273e-10      26885.2
       695.70000  5.37273e-10      26874.4
       695.80000  5.37273e-10      26858.3
       695.90000  5.37273e-10      26842.2
       696.00000  5.37273e-10      26831.4
       696.10000  5.37273e-10      26815.3
       696.20000  5.37273e-10      26799.2
       696.30000  5.36746e-10      26756.8
       696.40000  5.36746e-10      26740.7
       696.50000  2.68426e-10      13364.9
       696.60000  2.68426e-10      13356.9
       696.70000  2.68426e-10      13346.1
       696.80000  2.68426e-10      13338.1
       696.90000  2.68426e-10      13330.0
       697.00000  2.68426e-10      13319.3
       697.10000  2.68426e-10      13338.1
       697.20000  2.68426e-10      13351.5
       697.30000  2.68426e-10      13367.6
       697.40000  2.68426e-10      13381.0
       697.50000  8.05436e-10      40191.3
       697.60000  8.05436e-10      40223.5
       697.70000  8.05436e-10      40255.7
       697.80000  8.05436e-10      40279.9
       697.90000  8.05436e-10      40304.0
       698.00000  8.05436e-10      40320.1
       698.10000  8.05436e-10      40336.2
       698.20000  8.05436e-10      40352.4
       698.30000  8.05436e-10      40360.4
       698.40000  8.05436e-10      40368.5
       698.50000  8.05595e-10      40384.5
       698.60000  8.05595e-10      40384.5
       698.70000  8.05595e-10      40376.4
       698.80000  8.04220e-10      40299.5
       698.90000  8.04220e-10      40291.4
       699.00000  8.04220e-10      40275.3
       699.10000  8.04220e-10      40203.0
       699.20000  8.04220e-10      40122.5
       699.30000  8.04220e-10      40058.2
       699.40000  8.04220e-10      39985.8
       699.50000  2.68126e-10      13309.8
       699.60000  2.68126e-10      13288.3
       699.70000  2.68126e-10      13269.6
       699.80000  2.68126e-10      13250.8
       699.90000  2.68126e-10      13232.0
       700.00000  2.68126e-10      13215.9
       700.10000  2.68126e-10      13199.8
       700.20000  2.68126e-10      13183.8
       700.30000  2.68126e-10      13170.4
       700.40000  2.68126e-10      13156.9
       700.50000  4.02268e-10      19719.2
       700.60000  4.02268e-10      19703.1
       700.70000  4.02268e-10      19687.0
       700.80000  4.02268e-10      19674.9
       700.90000  4.02268e-10      19662.9
       701.00000  4.02268e-10      19650.8
       701.10000  4.02268e-10      19646.8
       701.20000  4.02268e-10      19642.8
       701.30000  4.01994e-10      19625.3
       701.40000  4.01994e-10      19625.3
       701.50000  3.35061e-10      16357.7
       701.60000  3.35061e-10      16357.7
       701.70000  3.35061e-10      16357.7
       701.80000  3.35061e-10      16361.0
       701.90000  3.35061e-10      16361.0
       702.00000  3.35061e-10      16364.4
       702.10000  3.35061e-10      16371.1
       702.20000  3.35061e-10      16374.4
       702.30000  3.35061e-10      16381.1
       702.40000  3.35061e-10      16384.5
       702.50000  4.46848e-10      21859.8
       702.60000  4.46848e-10      21873.2
       702.70000  4.46848e-10      21882.2
       702.80000  4.46848e-10      21895.6
       702.90000  4.46848e-10      21909.0
       703.00000  4.46848e-10      21922.4
       703.10000  4.46848e-10      21962.6
       703.20000  4.46848e-10      22002.8
       703.30000  4.46848e-10      22038.6
       703.40000  4.46848e-10      22074.3
       703.50000  4.46936e-10      22109.9
       703.60000  4.46936e-10      22145.7
       703.70000  4.46936e-10      22172.5
       703.80000  4.45733e-10      22144.0
       703.90000  4.45733e-10      22170.8
       704.00000  4.45733e-10      22193.1
       704.10000  4.45733e-10      22219.8
       704.20000  4.45733e-10      22242.1
       704.30000  4.45733e-10      22259.9
       704.40000  4.45733e-10      22277.8
       704.50000  5.93566e-11      2969.02
       704.60000  5.93566e-11      2971.39
       704.70000  5.93566e-11      2973.17
       704.80000  5.93566e-11      2974.36
