PDS_VERSION_ID         = PDS3
RECORD_TYPE            = STREAM
OBJECT                 = TEXT
  PUBLICATION_DATE     = 2014-04-25
  INTERCHANGE_FORMAT   = ASCII
  NOTE                 = "System transmission vs. wavelength."
END_OBJECT             = TEXT
END
    
The systrans directory contains the non-wavelength-integrated system 
transmission values (QE*optics*filter1*filter2) for each filter combination. 
The naming convention for these files is as follows:

<camera><filter 1><filter 2>_systrans.tab

where <camera> is "issna" or "isswa," and <filter 1> and <filter 2> represent
the filter names. For polarized filter combinations, values are given for the
parallel orientation of the filter (full transmission), with values for the 
perpendicular (blocking) orientation provided in files with subscript 
"_b_systrans.tab". 

Columns in systrans files are as follows:

 1st column: Wavelength (nm)  
 2nd column: Transmitted Flux
 3rd column: Transmitted Flux * Solar Flux (phot per cm^2-s-angstrom at 1 AU)

The solar spectrum used for this calculation is provided in solarflux.tab.

\begindata
       600.00000  1.49712e-09      79736.6
       600.10000  1.49712e-09      79616.8
       600.20000  1.49712e-09      79482.0
       600.30000  1.49712e-09      79317.4
       600.40000  1.49712e-09      79122.7
       600.50000  8.11911e-10      42803.9
       600.60000  8.11911e-10      42860.8
       600.70000  8.11911e-10      42909.5
       600.80000  8.11911e-10      42958.2
       600.90000  8.11911e-10      42990.7
       601.00000  8.11911e-10      43015.0
       601.10000  8.11911e-10      43023.1
       601.20000  8.11911e-10      43031.3
       601.30000  8.11804e-10      43025.6
       601.40000  8.11804e-10      43009.4
       601.50000  1.25793e-09      66619.8
       601.60000  1.25793e-09      66330.5
       601.70000  1.25793e-09      66091.5
       601.80000  1.25793e-09      65877.6
       601.90000  1.25793e-09      65714.1
       602.00000  1.25793e-09      65588.3
       602.10000  1.25793e-09      65487.6
       602.20000  1.25793e-09      65437.3
       602.30000  1.25793e-09      65424.8
       602.40000  1.25793e-09      65449.9
       602.50000  1.76947e-09      92136.3
       602.60000  1.76947e-09      92277.8
       602.70000  1.76947e-09      92472.5
       602.80000  1.76947e-09      92720.2
       602.90000  1.76947e-09      93021.0
       603.00000  1.76947e-09      93374.9
       603.10000  1.76947e-09      93781.9
       603.20000  1.76947e-09      94241.9
       603.30000  1.76947e-09      94755.1
       603.40000  1.76947e-09      95321.3
       603.50000  2.58565e-09      140194.
       603.60000  2.58565e-09      140142.
       603.70000  2.58565e-09      140090.
       603.80000  2.58455e-09      139979.
       603.90000  2.58455e-09      139902.
       604.00000  2.58455e-09      139850.
       604.10000  2.58455e-09      139772.
       604.20000  2.58455e-09      139721.
       604.30000  2.58455e-09      139643.
       604.40000  2.58455e-09      139591.
       604.50000  3.69498e-09      199455.
       604.60000  3.69498e-09      199307.
       604.70000  3.69498e-09      199159.
       604.80000  3.69498e-09      199012.
       604.90000  3.69498e-09      198864.
       605.00000  3.69498e-09      198753.
       605.10000  3.69498e-09      198642.
       605.20000  3.69498e-09      198568.
       605.30000  3.69498e-09      198457.
       605.40000  3.69498e-09      198384.
       605.50000  4.43303e-09      237921.
       605.60000  4.43303e-09      237876.
       605.70000  4.43303e-09      237788.
       605.80000  4.43303e-09      237743.
       605.90000  4.43303e-09      237743.
       606.00000  4.43303e-09      237699.
       606.10000  4.43303e-09      237699.
       606.20000  4.43303e-09      237699.
       606.30000  4.43315e-09      237706.
       606.40000  4.43315e-09      237750.
       606.50000  8.65407e-09      464204.
       606.60000  8.65407e-09      464378.
       606.70000  8.65407e-09      464464.
       606.80000  8.65407e-09      464637.
       606.90000  8.65407e-09      464637.
       607.00000  8.65407e-09      464724.
       607.10000  8.65407e-09      464724.
       607.20000  8.65407e-09      464724.
       607.30000  8.65407e-09      464637.
       607.40000  8.65407e-09      464551.
       607.50000  2.09681e-08  1.12536e+06
       607.60000  2.09681e-08  1.12410e+06
       607.70000  2.09681e-08  1.12305e+06
       607.80000  2.09681e-08  1.12221e+06
       607.90000  2.09681e-08  1.12138e+06
       608.00000  2.09681e-08  1.12054e+06
       608.10000  2.09681e-08  1.11991e+06
       608.20000  2.09681e-08  1.11928e+06
       608.30000  2.09681e-08  1.11886e+06
       608.40000  2.09681e-08  1.11844e+06
       608.50000  2.45047e-08  1.30684e+06
       608.60000  2.45047e-08  1.30659e+06
       608.70000  2.45047e-08  1.30635e+06
       608.80000  2.44995e-08  1.30607e+06
       608.90000  2.44995e-08  1.30631e+06
       609.00000  2.44995e-08  1.30656e+06
       609.10000  2.44995e-08  1.30680e+06
       609.20000  2.44995e-08  1.30729e+06
       609.30000  2.44995e-08  1.30778e+06
       609.40000  2.44995e-08  1.30852e+06
       609.50000  2.78795e-08  1.49016e+06
       609.60000  2.78795e-08  1.48347e+06
       609.70000  2.78795e-08  1.47761e+06
       609.80000  2.78795e-08  1.47259e+06
       609.90000  2.78795e-08  1.46841e+06
       610.00000  2.78795e-08  1.46479e+06
       610.10000  2.78795e-08  1.46172e+06
       610.20000  2.78795e-08  1.45949e+06
       610.30000  2.78795e-08  1.45810e+06
       610.40000  2.78795e-08  1.45754e+06
       610.50000  3.11544e-08  1.62844e+06
       610.60000  3.11544e-08  1.63654e+06
       610.70000  3.11544e-08  1.64371e+06
       610.80000  3.11544e-08  1.65025e+06
       610.90000  3.11544e-08  1.65586e+06
       611.00000  3.89430e-08  2.07566e+06
       611.10000  3.50487e-08  1.87265e+06
       611.20000  4.67316e-08  2.50154e+06
       611.30000  4.67317e-08  2.50529e+06
       611.40000  5.06260e-08  2.71659e+06
       611.50000  5.33291e-08  2.86271e+06
       611.60000  6.85660e-08  3.68062e+06
       611.70000  7.61844e-08  4.08729e+06
       611.80000  8.38029e-08  4.49183e+06
       611.90000  9.14213e-08  4.89287e+06
       612.00000  1.02849e-07  5.49419e+06
       612.10000  9.52305e-08  5.07484e+06
       612.20000  1.02849e-07  5.46437e+06
       612.30000  1.06658e-07  5.64755e+06
       612.40000  1.33323e-07  7.03144e+06
       612.50000  1.33952e-07  7.03380e+06
       612.60000  1.48835e-07  7.79599e+06
       612.70000  1.63719e-07  8.55594e+06
       612.80000  1.86044e-07  9.70405e+06
       612.90000  2.15811e-07  1.12394e+07
       613.00000  2.34415e-07  1.21919e+07
       613.10000  2.67903e-07  1.39203e+07
       613.20000  2.93949e-07  1.52619e+07
       613.30000  3.16275e-07  1.64147e+07
       613.40000  3.64646e-07  1.89251e+07
       613.50000  4.27505e-07  2.21918e+07
       613.60000  4.56736e-07  2.37777e+07
       613.70000  5.37122e-07  2.80324e+07
       613.80000  5.69384e-07  2.97845e+07
       613.90000  6.53332e-07  3.42542e+07
       614.00000  7.08081e-07  3.72025e+07
       614.10000  7.99328e-07  4.20686e+07
       614.20000  9.34374e-07  4.92602e+07
       614.30000  1.02927e-06  5.43455e+07
       614.40000  1.21177e-06  6.40661e+07
       614.50000  1.37948e-06  7.30161e+07
       614.60000  1.56128e-06  8.27165e+07
       614.70000  1.86070e-06  9.86543e+07
       614.80000  2.11378e-06  1.12136e+08
       614.90000  2.57361e-06  1.36582e+08
       615.00000  2.90155e-06  1.54014e+08
       615.10000  3.26514e-06  1.73346e+08
       615.20000  3.97805e-06  2.11155e+08
       615.30000  4.55551e-06  2.41761e+08
       615.40000  5.63557e-06  2.98967e+08
       615.50000  6.82203e-06  3.61636e+08
       615.60000  7.90782e-06  4.14528e+08
       615.70000  1.00026e-05  5.18936e+08
       615.80000  1.17448e-05  6.03799e+08
       615.90000  1.49358e-05  7.61877e+08
       616.00000  1.78022e-05  9.01860e+08
       616.10000  2.06267e-05  1.03917e+09
       616.20000  2.65200e-05  1.33024e+09
       616.30000  3.22294e-05  1.61147e+09
       616.40000  4.15211e-05  2.07232e+09
       616.50000  5.19197e-05  2.58924e+09
       616.60000  6.20927e-05  3.12326e+09
       616.70000  7.92223e-05  4.01657e+09
       616.80000  9.32377e-05  4.76165e+09
       616.90000  0.000116116  5.97067e+09
       617.00000  0.000134300  6.95005e+09
       617.10000  0.000153652  7.99761e+09
       617.20000  0.000184233  9.63905e+09
       617.30000  0.000200828  1.05575e+10
       617.40000  0.000229740  1.21303e+10
       617.50000  0.000247462  1.31155e+10
       617.60000  0.000257620  1.36977e+10
       617.70000  0.000269188  1.43531e+10
       617.80000  0.000271602  1.45171e+10
       617.90000  0.000272798  1.46056e+10
       618.00000  0.000271148  1.45390e+10
       618.10000  0.000267542  1.43590e+10
       618.20000  0.000262522  1.40948e+10
       618.30000  0.000258933  1.39021e+10
       618.40000  0.000254999  1.36832e+10
       618.50000  0.000245573  1.31651e+10
       618.60000  0.000244263  1.30705e+10
       618.70000  0.000242596  1.29570e+10
       618.80000  0.000242950  1.29590e+10
       618.90000  0.000243646  1.29790e+10
       619.00000  0.000244310  1.30022e+10
       619.10000  0.000245524  1.30570e+10
       619.20000  0.000247050  1.31332e+10
       619.30000  0.000248605  1.32134e+10
       619.40000  0.000249578  1.32651e+10
       619.50000  0.000244000  1.29735e+10
       619.60000  0.000243704  1.30040e+10
       619.70000  0.000241501  1.29275e+10
       619.80000  0.000238814  1.28195e+10
       619.90000  0.000233637  1.25720e+10
       620.00000  0.000227617  1.22709e+10
       620.10000  0.000220922  1.19276e+10
       620.20000  0.000208720  1.12813e+10
       620.30000  0.000198447  1.07340e+10
       620.40000  0.000182364  9.86588e+09
       620.50000  0.000160157  8.66451e+09
       620.60000  0.000147916  7.96971e+09
       620.70000  0.000128475  6.89524e+09
       620.80000  0.000116398  6.22614e+09
       620.90000  9.85277e-05  5.25448e+09
       621.00000  8.69333e-05  4.62398e+09
       621.10000  7.58178e-05  4.02365e+09
       621.20000  6.28954e-05  3.33220e+09
       621.30000  5.51985e-05  2.92000e+09
       621.40000  4.43303e-05  2.34241e+09
       621.50000  3.51930e-05  1.85854e+09
       621.60000  3.08879e-05  1.63675e+09
       621.70000  2.48858e-05  1.32268e+09
       621.80000  2.17770e-05  1.16028e+09
       621.90000  1.77665e-05  9.48731e+08
       622.00000  1.56413e-05  8.36654e+08
       622.10000  1.36194e-05  7.29453e+08
       622.20000  1.12179e-05  6.01280e+08
       622.30000  9.74850e-06  5.22812e+08
       622.40000  8.08782e-06  4.33750e+08
       622.50000  6.59420e-06  3.53515e+08
       622.60000  5.81580e-06  3.11552e+08
       622.70000  4.85390e-06  2.59732e+08
       622.80000  4.29452e-06  2.29456e+08
       622.90000  3.57827e-06  1.90793e+08
       623.00000  3.26158e-06  1.73516e+08
       623.10000  2.91530e-06  1.54657e+08
       623.20000  2.50094e-06  1.32225e+08
       623.30000  2.24937e-06  1.18497e+08
       623.40000  1.94156e-06  1.01854e+08
       623.50000  1.61929e-06  8.45755e+07
       623.60000  1.46054e-06  7.62692e+07
       623.70000  1.28158e-06  6.69239e+07
       623.80000  1.15497e-06  6.02893e+07
       623.90000  9.87915e-07  5.15593e+07
       624.00000  8.89988e-07  4.64307e+07
       624.10000  8.29503e-07  4.32503e+07
       624.20000  7.40217e-07  3.85727e+07
       624.30000  6.71091e-07  3.49504e+07
       624.40000  5.96205e-07  3.10265e+07
       624.50000  5.01421e-07  2.60739e+07
       624.60000  4.56850e-07  2.36648e+07
       624.70000  4.12279e-07  2.12901e+07
       624.80000  3.76066e-07  1.93674e+07
       624.90000  3.39852e-07  1.74650e+07
       625.00000  3.17567e-07  1.62943e+07
       625.10000  2.84139e-07  1.45649e+07
       625.20000  2.50710e-07  1.28439e+07
       625.30000  2.53496e-07  1.29891e+07
       625.40000  2.22854e-07  1.14257e+07
       625.50000  2.02744e-07  1.04069e+07
       625.60000  1.81118e-07  9.31128e+06
       625.70000  1.56789e-07  8.07932e+06
       625.80000  1.54086e-07  7.96160e+06
       625.90000  1.24350e-07  6.44629e+06
       626.00000  1.21646e-07  6.33048e+06
       626.10000  1.18943e-07  6.21716e+06
       626.20000  1.05427e-07  5.53702e+06
       626.30000  1.05261e-07  5.55882e+06
       626.40000  8.90667e-08  4.73122e+06
       626.50000  8.38246e-08  4.48043e+06
       626.60000  8.12051e-08  4.34123e+06
       626.70000  6.81075e-08  3.64171e+06
       626.80000  6.54880e-08  3.50230e+06
       626.90000  6.02490e-08  3.22272e+06
       627.00000  6.81075e-08  3.64375e+06
       627.10000  6.81075e-08  3.64443e+06
       627.20000  6.81075e-08  3.64443e+06
       627.30000  6.81075e-08  3.64511e+06
       627.40000  6.81075e-08  3.64580e+06
       627.50000  5.44832e-08  2.91703e+06
       627.60000  5.44832e-08  2.91921e+06
       627.70000  5.44832e-08  2.92085e+06
       627.80000  5.44832e-08  2.92193e+06
       627.90000  5.44832e-08  2.92302e+06
       628.00000  5.44832e-08  2.92357e+06
       628.10000  5.44832e-08  2.92411e+06
       628.20000  5.44832e-08  2.92411e+06
       628.30000  5.44832e-08  2.92357e+06
       628.40000  5.44832e-08  2.92302e+06
       628.50000  4.14679e-08  2.22392e+06
       628.60000  4.14679e-08  2.22268e+06
       628.70000  4.14679e-08  2.22144e+06
       628.80000  4.13802e-08  2.21508e+06
       628.90000  4.13802e-08  2.21302e+06
       629.00000  4.13802e-08  2.21095e+06
       629.10000  4.13802e-08  2.20846e+06
       629.20000  4.13802e-08  2.20598e+06
       629.30000  4.13802e-08  2.20308e+06
       629.40000  4.13802e-08  2.19977e+06
       629.50000  1.87869e-08      997211.
       629.60000  1.87869e-08      995145.
       629.70000  1.87869e-08      993078.
       629.80000  1.87869e-08      991199.
       629.90000  1.87869e-08      989509.
       630.00000  1.87869e-08      987818.
       630.10000  1.87869e-08      986127.
       630.20000  1.87869e-08      984812.
       630.30000  1.87869e-08      983309.
       630.40000  1.87869e-08      982182.
       630.50000  1.12980e-08      589979.
       630.60000  1.12980e-08      589301.
       630.70000  1.12980e-08      588736.
       630.80000  1.12980e-08      588285.
       630.90000  1.12980e-08      587833.
       631.00000  1.12980e-08      587494.
       631.10000  1.12980e-08      587833.
       631.20000  1.12980e-08      588172.
       631.30000  1.12974e-08      588595.
       631.40000  1.12974e-08      588934.
       631.50000  6.48458e-09      338236.
       631.60000  6.48458e-09      338430.
       631.70000  6.48458e-09      338625.
       631.80000  6.48458e-09      338754.
       631.90000  6.48458e-09      338949.
       632.00000  6.48458e-09      339143.
       632.10000  6.48458e-09      339338.
       632.20000  6.48458e-09      339468.
       632.30000  6.48458e-09      339662.
       632.40000  6.48458e-09      339857.
       632.50000  4.15720e-09      217962.
       632.60000  4.15720e-09      218045.
       632.70000  4.15720e-09      218170.
       632.80000  4.15720e-09      218253.
       632.90000  4.15720e-09      218336.
       633.00000  4.15720e-09      218461.
       633.10000  4.15720e-09      218544.
       633.20000  4.15720e-09      218627.
       633.30000  4.15720e-09      218710.
       633.40000  4.15720e-09      218793.
       633.50000  1.99242e-09      104901.
       633.60000  1.99242e-09      104941.
       633.70000  1.99242e-09      104981.
       633.80000  1.99211e-09      104984.
       633.90000  1.99211e-09      105024.
       634.00000  1.99211e-09      105064.
       634.10000  1.99211e-09      105084.
       634.20000  1.99211e-09      105124.
       634.30000  1.99211e-09      105144.
       634.40000  1.99211e-09      105184.
       634.50000  1.80277e-09      95204.1
       634.60000  1.80277e-09      95222.2
       634.70000  1.80277e-09      95258.2
       634.80000  1.80277e-09      95276.3
       634.90000  1.80277e-09      95294.3
       635.00000  1.80277e-09      95312.3
       635.10000  1.80277e-09      95330.3
       635.20000  1.80277e-09      95330.3
       635.30000  1.80277e-09      95348.4
       635.40000  1.80277e-09      95348.4
       635.50000  1.37168e-09      72562.1
       635.60000  1.37168e-09      72575.8
       635.70000  1.37168e-09      72575.8
       635.80000  1.37168e-09      72589.5
       635.90000  1.37168e-09      72589.5
       636.00000  1.37168e-09      72603.2
       636.10000  1.37168e-09      72603.2
       636.20000  1.37168e-09      72616.9
       636.30000  1.36355e-09      72186.5
       636.40000  1.36355e-09      72200.2
       636.50000  1.06674e-09      56483.8
       636.60000  1.06674e-09      56494.5
       636.70000  1.06674e-09      56494.5
       636.80000  1.06674e-09      56505.1
       636.90000  1.06674e-09      56505.1
       637.00000  1.06674e-09      56505.1
       637.10000  1.06674e-09      56515.8
       637.20000  1.06674e-09      56515.8
       637.30000  1.06674e-09      56526.5
       637.40000  1.06674e-09      56526.5
       637.50000  8.31333e-10      44052.3
       637.60000  8.31333e-10      44060.6
       637.70000  8.31333e-10      44060.6
       637.80000  8.31333e-10      44069.0
       637.90000  8.31333e-10      44069.0
       638.00000  8.31333e-10      44069.0
       638.10000  8.31333e-10      44077.3
       638.20000  8.31333e-10      44077.3
       638.30000  8.31333e-10      44077.3
       638.40000  8.31333e-10      44085.6
       638.50000  5.72132e-10      30340.2
       638.60000  5.72132e-10      30340.2
       638.70000  5.72132e-10      30345.9
       638.80000  5.68381e-10      30146.9
       638.90000  5.68381e-10      30146.9
       639.00000  5.68381e-10      30146.9
       639.10000  5.68381e-10      30101.4
       639.20000  5.68381e-10      30056.0
       639.30000  5.68381e-10      30010.5
       639.40000  5.68381e-10      29970.7
       639.50000  4.68492e-10      24666.1
       639.60000  4.68492e-10      24638.0
       639.70000  4.68492e-10      24605.2
       639.80000  4.68492e-10      24577.1
       639.90000  4.68492e-10      24553.7
       640.00000  4.68492e-10      24525.6
       640.10000  4.68492e-10      24502.2
       640.20000  4.68492e-10      24483.4
       640.30000  4.68492e-10      24464.7
       640.40000  4.68492e-10      24445.9
       640.50000  4.61338e-10      24054.2
       640.60000  4.61338e-10      24040.3
       640.70000  4.61338e-10      24026.5
       640.80000  4.61338e-10      24017.3
       640.90000  4.61338e-10      24003.4
       641.00000  4.61338e-10      23998.8
       641.10000  4.61338e-10      24008.0
       641.20000  4.61338e-10      24017.3
       641.30000  4.58218e-10      23864.0
       641.40000  4.58218e-10      23873.1
       641.50000  3.17485e-10      16547.3
       641.60000  3.17485e-10      16553.6
       641.70000  3.17485e-10      16560.0
       641.80000  3.17485e-10      16566.3
       641.90000  3.17485e-10      16572.7
       642.00000  3.17485e-10      16579.0
       642.10000  3.17485e-10      16582.2
       642.20000  3.17485e-10      16588.6
       642.30000  3.17485e-10      16594.9
       642.40000  3.17485e-10      16601.3
       642.50000  2.93367e-10      15346.0
       642.60000  2.93367e-10      15351.9
       642.70000  2.93367e-10      15357.8
       642.80000  2.93367e-10      15363.6
       642.90000  2.93367e-10      15369.5
       643.00000  2.93367e-10      15375.4
       643.10000  2.93367e-10      15378.3
       643.20000  2.93367e-10      15384.2
       643.30000  2.93367e-10      15390.0
       643.40000  2.93367e-10      15395.9
       643.50000  2.44824e-10      12853.3
       643.60000  2.44824e-10      12858.2
       643.70000  2.44824e-10      12860.6
       643.80000  2.44498e-10      12848.4
