PDS_VERSION_ID         = PDS3
RECORD_TYPE            = STREAM
OBJECT                 = TEXT
  PUBLICATION_DATE     = 2014-04-25
  INTERCHANGE_FORMAT   = ASCII
  NOTE                 = "System transmission vs. wavelength."
END_OBJECT             = TEXT
END
    
The systrans directory contains the non-wavelength-integrated system 
transmission values (QE*optics*filter1*filter2) for each filter combination. 
The naming convention for these files is as follows:

<camera><filter 1><filter 2>_systrans.tab

where <camera> is "issna" or "isswa," and <filter 1> and <filter 2> represent
the filter names. For polarized filter combinations, values are given for the
parallel orientation of the filter (full transmission), with values for the 
perpendicular (blocking) orientation provided in files with subscript 
"_b_systrans.tab". 

Columns in systrans files are as follows:

 1st column: Wavelength (nm)  
 2nd column: Transmitted Flux
 3rd column: Transmitted Flux * Solar Flux (phot per cm^2-s-angstrom at 1 AU)

The solar spectrum used for this calculation is provided in solarflux.tab.

\begindata
       619.00000  6.00718e-10      31970.2
       619.10000  6.00718e-10      31946.2
       619.20000  6.00718e-10      31934.2
       619.30000  6.00718e-10      31928.2
       619.40000  6.00718e-10      31928.2
       619.50000  9.98098e-10      53068.9
       619.60000  9.98098e-10      53258.5
       619.70000  9.98098e-10      53428.2
       619.80000  9.98098e-10      53577.9
       619.90000  9.98098e-10      53707.7
       620.00000  9.98098e-10      53807.5
       620.10000  9.98098e-10      53887.3
       620.20000  9.98098e-10      53947.2
       620.30000  9.98098e-10      53987.1
       620.40000  9.98098e-10      53997.1
       620.50000  1.19258e-09      64518.6
       620.60000  1.19258e-09      64256.2
       620.70000  1.19258e-09      64005.8
       620.80000  1.19258e-09      63791.1
       620.90000  1.19258e-09      63600.3
       621.00000  1.19258e-09      63433.3
       621.10000  1.19258e-09      63290.2
       621.20000  1.19258e-09      63182.9
       621.30000  1.19105e-09      63006.5
       621.40000  1.19105e-09      62935.0
       621.50000  1.29552e-09      68416.3
       621.60000  1.29552e-09      68649.5
       621.70000  1.29552e-09      68856.8
       621.80000  1.29552e-09      69025.2
       621.90000  1.29552e-09      69180.7
       622.00000  1.29552e-09      69297.3
       622.10000  1.29552e-09      69388.0
       622.20000  1.29552e-09      69439.8
       622.30000  1.29552e-09      69478.7
       622.40000  1.29552e-09      69478.7
       622.50000  2.37435e-09      127289.
       622.60000  2.37435e-09      127194.
       622.70000  2.37435e-09      127052.
       622.80000  2.37435e-09      126862.
       622.90000  2.37435e-09      126600.
       623.00000  2.37435e-09      126315.
       623.10000  2.37435e-09      125959.
       623.20000  2.37435e-09      125532.
       623.30000  2.37435e-09      125081.
       623.40000  2.37435e-09      124558.
       623.50000  4.06133e-09      212123.
       623.60000  4.06133e-09      212082.
       623.70000  4.06133e-09      212082.
       623.80000  4.05258e-09      211545.
       623.90000  4.05258e-09      211504.
       624.00000  4.05258e-09      211423.
       624.10000  4.05258e-09      211302.
       624.20000  4.05258e-09      211180.
       624.30000  4.05258e-09      211058.
       624.40000  4.05258e-09      210896.
       624.50000  5.49977e-09      285988.
       624.60000  5.49977e-09      284888.
       624.70000  5.49977e-09      284008.
       624.80000  5.49977e-09      283238.
       624.90000  5.49977e-09      282633.
       625.00000  5.49977e-09      282193.
       625.10000  5.49977e-09      281918.
       625.20000  5.49977e-09      281753.
       625.30000  5.49977e-09      281808.
       625.40000  5.49977e-09      281973.
       625.50000  1.29941e-08      666988.
       625.60000  1.29941e-08      668028.
       625.70000  1.29941e-08      669587.
       625.80000  1.29941e-08      671406.
       625.90000  1.29941e-08      673615.
       626.00000  1.29941e-08      676214.
       626.10000  1.29941e-08      679202.
       626.20000  1.29941e-08      682451.
       626.30000  1.29736e-08      685137.
       626.40000  1.29736e-08      689159.
       626.50000  3.91193e-08  2.09093e+06
       626.60000  3.91193e-08  2.09132e+06
       626.70000  3.91193e-08  2.09171e+06
       626.80000  3.91193e-08  2.09210e+06
       626.90000  3.91193e-08  2.09249e+06
       627.00000  3.91193e-08  2.09288e+06
       627.10000  3.91193e-08  2.09327e+06
       627.20000  3.91193e-08  2.09327e+06
       627.30000  3.91193e-08  2.09366e+06
       627.40000  3.91193e-08  2.09406e+06
       627.50000  1.16135e-07  6.21785e+06
       627.60000  1.16135e-07  6.22249e+06
       627.70000  1.16135e-07  6.22598e+06
       627.80000  1.16135e-07  6.22830e+06
       627.90000  1.16135e-07  6.23062e+06
       628.00000  1.16135e-07  6.23179e+06
       628.10000  1.16135e-07  6.23295e+06
       628.20000  1.16135e-07  6.23295e+06
       628.30000  1.16135e-07  6.23179e+06
       628.40000  1.16135e-07  6.23062e+06
       628.50000  2.74655e-07  1.47297e+07
       628.60000  2.74655e-07  1.47215e+07
       628.70000  2.74655e-07  1.47133e+07
       628.80000  2.74074e-07  1.46712e+07
       628.90000  2.74074e-07  1.46575e+07
       629.00000  2.74074e-07  1.46438e+07
       629.10000  2.74074e-07  1.46273e+07
       629.20000  2.74074e-07  1.46109e+07
       629.30000  2.74074e-07  1.45917e+07
       629.40000  2.74074e-07  1.45698e+07
       629.50000  2.76522e-07  1.46778e+07
       629.60000  2.76522e-07  1.46474e+07
       629.70000  2.76522e-07  1.46169e+07
       629.80000  2.76522e-07  1.45893e+07
       629.90000  2.76522e-07  1.45644e+07
       630.00000  2.76522e-07  1.45395e+07
       630.10000  2.76522e-07  1.45146e+07
       630.20000  2.76522e-07  1.44953e+07
       630.30000  2.76522e-07  1.44731e+07
       630.40000  2.76522e-07  1.44566e+07
       630.50000  2.69066e-07  1.40506e+07
       630.60000  2.69066e-07  1.40345e+07
       630.70000  2.69066e-07  1.40210e+07
       630.80000  2.69066e-07  1.40102e+07
       630.90000  2.69066e-07  1.39995e+07
       631.00000  2.69066e-07  1.39914e+07
       631.10000  2.69066e-07  1.39995e+07
       631.20000  2.69066e-07  1.40076e+07
       631.30000  2.69053e-07  1.40176e+07
       631.40000  2.69053e-07  1.40257e+07
       631.50000  3.11324e-07  1.62387e+07
       631.60000  3.11324e-07  1.62480e+07
       631.70000  3.11324e-07  1.62574e+07
       631.80000  3.11324e-07  1.62636e+07
       631.90000  3.11324e-07  1.62729e+07
       632.00000  3.11324e-07  1.62823e+07
       632.10000  3.11324e-07  1.62916e+07
       632.20000  3.11324e-07  1.62978e+07
       632.30000  3.11324e-07  1.63072e+07
       632.40000  3.11324e-07  1.63165e+07
       632.50000  3.89450e-07  2.04188e+07
       632.60000  3.89450e-07  2.04266e+07
       632.70000  3.89450e-07  2.04383e+07
       632.80000  3.89450e-07  2.04461e+07
       632.90000  3.89450e-07  2.04539e+07
       633.00000  3.89450e-07  2.04656e+07
       633.10000  3.89450e-07  2.04734e+07
       633.20000  3.89450e-07  2.04812e+07
       633.30000  3.89450e-07  2.04890e+07
       633.40000  3.89450e-07  2.04967e+07
       633.50000  4.64450e-07  2.44533e+07
       633.60000  4.64450e-07  2.44626e+07
       633.70000  4.64450e-07  2.44718e+07
       633.80000  4.64378e-07  2.44727e+07
       633.90000  4.64378e-07  2.44820e+07
       634.00000  4.64378e-07  2.44913e+07
       634.10000  4.64378e-07  2.44960e+07
       634.20000  4.64378e-07  2.45052e+07
       634.30000  4.64378e-07  2.45099e+07
       634.40000  4.64378e-07  2.45192e+07
       634.50000  3.21616e-07  1.69845e+07
       634.60000  3.21616e-07  1.69878e+07
       634.70000  3.21616e-07  1.69942e+07
       634.80000  3.21616e-07  1.69974e+07
       634.90000  3.21616e-07  1.70006e+07
       635.00000  3.21616e-07  1.70038e+07
       635.10000  3.21616e-07  1.70071e+07
       635.20000  3.21616e-07  1.70071e+07
       635.30000  3.21616e-07  1.70103e+07
       635.40000  3.21616e-07  1.70103e+07
       635.50000  2.80505e-07  1.48387e+07
       635.60000  2.80505e-07  1.48415e+07
       635.70000  2.80505e-07  1.48415e+07
       635.80000  2.80505e-07  1.48443e+07
       635.90000  2.80505e-07  1.48443e+07
       636.00000  2.80505e-07  1.48471e+07
       636.10000  2.80505e-07  1.48471e+07
       636.20000  2.80505e-07  1.48499e+07
       636.30000  2.78842e-07  1.47619e+07
       636.40000  2.78842e-07  1.47647e+07
       636.50000  3.35554e-07  1.77676e+07
       636.60000  3.35554e-07  1.77709e+07
       636.70000  3.35554e-07  1.77709e+07
       636.80000  3.35554e-07  1.77743e+07
       636.90000  3.35554e-07  1.77743e+07
       637.00000  3.35554e-07  1.77743e+07
       637.10000  3.35554e-07  1.77776e+07
       637.20000  3.35554e-07  1.77776e+07
       637.30000  3.35554e-07  1.77810e+07
       637.40000  3.35554e-07  1.77810e+07
       637.50000  3.30384e-07  1.75071e+07
       637.60000  3.30384e-07  1.75104e+07
       637.70000  3.30384e-07  1.75104e+07
       637.80000  3.30384e-07  1.75137e+07
       637.90000  3.30384e-07  1.75137e+07
       638.00000  3.30384e-07  1.75137e+07
       638.10000  3.30384e-07  1.75170e+07
       638.20000  3.30384e-07  1.75170e+07
       638.30000  3.30384e-07  1.75170e+07
       638.40000  3.30384e-07  1.75203e+07
       638.50000  2.50275e-07  1.32721e+07
       638.60000  2.50275e-07  1.32721e+07
       638.70000  2.50275e-07  1.32746e+07
       638.80000  2.48634e-07  1.31876e+07
       638.90000  2.48634e-07  1.31876e+07
       639.00000  2.48634e-07  1.31876e+07
       639.10000  2.48634e-07  1.31677e+07
       639.20000  2.48634e-07  1.31478e+07
       639.30000  2.48634e-07  1.31279e+07
       639.40000  2.48634e-07  1.31105e+07
       639.50000  2.07745e-07  1.09378e+07
       639.60000  2.07745e-07  1.09253e+07
       639.70000  2.07745e-07  1.09108e+07
       639.80000  2.07745e-07  1.08983e+07
       639.90000  2.07745e-07  1.08879e+07
       640.00000  2.07745e-07  1.08755e+07
       640.10000  2.07745e-07  1.08651e+07
       640.20000  2.07745e-07  1.08568e+07
       640.30000  2.07745e-07  1.08485e+07
       640.40000  2.07745e-07  1.08401e+07
       640.50000  1.09732e-07  5.72143e+06
       640.60000  1.09732e-07  5.71814e+06
       640.70000  1.09732e-07  5.71485e+06
       640.80000  1.09732e-07  5.71265e+06
       640.90000  1.09732e-07  5.70936e+06
       641.00000  1.09732e-07  5.70826e+06
       641.10000  1.09732e-07  5.71046e+06
       641.20000  1.09732e-07  5.71265e+06
       641.30000  1.08990e-07  5.67619e+06
       641.40000  1.08990e-07  5.67837e+06
       641.50000  8.03227e-08  4.18642e+06
       641.60000  8.03227e-08  4.18803e+06
       641.70000  8.03227e-08  4.18963e+06
       641.80000  8.03227e-08  4.19124e+06
       641.90000  8.03227e-08  4.19285e+06
       642.00000  8.03227e-08  4.19445e+06
       642.10000  8.03227e-08  4.19526e+06
       642.20000  8.03227e-08  4.19686e+06
       642.30000  8.03227e-08  4.19847e+06
       642.40000  8.03227e-08  4.20008e+06
       642.50000  4.23202e-08  2.21377e+06
       642.60000  4.23202e-08  2.21462e+06
       642.70000  4.23202e-08  2.21546e+06
       642.80000  4.23202e-08  2.21631e+06
       642.90000  4.23202e-08  2.21715e+06
       643.00000  4.23202e-08  2.21800e+06
       643.10000  4.23202e-08  2.21842e+06
       643.20000  4.23202e-08  2.21927e+06
       643.30000  4.23202e-08  2.22012e+06
       643.40000  4.23202e-08  2.22096e+06
       643.50000  2.37387e-08  1.24628e+06
       643.60000  2.37387e-08  1.24676e+06
       643.70000  2.37387e-08  1.24699e+06
       643.80000  2.37071e-08  1.24581e+06
       643.90000  2.37071e-08  1.24628e+06
       644.00000  2.37071e-08  1.24676e+06
       644.10000  2.37071e-08  1.24723e+06
       644.20000  2.37071e-08  1.24747e+06
       644.30000  2.37071e-08  1.24794e+06
       644.40000  2.37071e-08  1.24842e+06
       644.50000  8.86691e-09      467109.
       644.60000  8.86691e-09      467198.
       644.70000  8.86691e-09      467375.
       644.80000  8.86691e-09      467552.
       644.90000  8.86691e-09      467730.
       645.00000  8.86691e-09      467818.
       645.10000  8.86691e-09      467730.
       645.20000  8.86691e-09      467552.
       645.30000  8.86691e-09      467464.
       645.40000  8.86691e-09      467286.
       645.50000  3.94554e-09      207811.
       645.60000  3.94554e-09      207732.
       645.70000  3.94554e-09      207654.
       645.80000  3.94554e-09      207535.
       645.90000  3.94554e-09      207417.
       646.00000  3.94554e-09      207298.
       646.10000  3.94554e-09      207180.
       646.20000  3.94554e-09      207062.
       646.30000  3.94312e-09      206777.
       646.40000  3.94312e-09      206619.
       646.50000  4.56519e-09      239079.
       646.60000  4.56519e-09      238851.
       646.70000  4.56519e-09      238668.
       646.80000  4.56519e-09      238486.
       646.90000  4.56519e-09      238257.
       647.00000  4.56519e-09      238075.
       647.10000  4.56519e-09      237436.
       647.20000  4.56519e-09      236842.
       647.30000  4.56519e-09      236294.
       647.40000  4.56519e-09      235747.
       647.50000  2.25823e-09      116367.
       647.60000  2.25823e-09      116163.
       647.70000  2.25823e-09      115938.
       647.80000  2.25823e-09      115757.
       647.90000  2.25823e-09      115576.
       648.00000  2.25823e-09      115418.
       648.10000  2.25823e-09      115283.
       648.20000  2.25823e-09      115170.
       648.30000  2.25823e-09      115057.
       648.40000  2.25823e-09      114967.
       648.50000  1.02775e-09      52291.8
       648.60000  1.02775e-09      52271.2
       648.70000  1.02775e-09      52250.7
       648.80000  1.02881e-09      52294.4
       648.90000  1.02881e-09      52294.4
       649.00000  1.02881e-09      52304.7
       649.10000  1.02881e-09      52315.0
       649.20000  1.02881e-09      52345.9
       649.30000  1.02881e-09      52366.4
       649.40000  1.02881e-09      52407.6
       649.50000  1.11397e-09      56801.1
       649.60000  1.11397e-09      56856.8
       649.70000  1.11397e-09      56923.6
       649.80000  1.11397e-09      57001.6
       649.90000  1.11397e-09      57079.6
       650.00000  1.11397e-09      57168.7
       650.10000  1.11397e-09      57269.0
       650.20000  1.11397e-09      57380.4
       650.30000  1.11397e-09      57502.9
       650.40000  1.11397e-09      57625.4
       650.50000  5.23674e-10      27152.5
       650.60000  5.23674e-10      27220.6
       650.70000  5.23674e-10      27288.6
       650.80000  5.23674e-10      27367.2
       650.90000  5.23674e-10      27445.7
       651.00000  5.23674e-10      27529.5
       651.10000  5.23674e-10      27550.5
       651.20000  5.23674e-10      27571.4
       651.30000  5.23017e-10      27552.5
       651.40000  5.23017e-10      27568.2
       651.50000  4.48761e-10      23667.6
       651.60000  4.48761e-10      23672.1
       651.70000  4.48761e-10      23681.1
       651.80000  4.48761e-10      23685.6
       651.90000  4.48761e-10      23685.6
       652.00000  4.48761e-10      23685.6
       652.10000  4.48761e-10      23681.1
       652.20000  4.48761e-10      23676.6
       652.30000  4.48761e-10      23672.1
       652.40000  4.48761e-10      23663.2
       652.50000  2.23582e-10      11782.8
       652.60000  2.23582e-10      11776.1
       652.70000  2.23582e-10      11769.4
       652.80000  2.23582e-10      11758.2
       652.90000  2.23582e-10      11749.2
       653.00000  2.23582e-10      11738.1
       653.10000  2.23582e-10      11729.1
       653.20000  2.23582e-10      11720.2
       653.30000  2.23582e-10      11706.8
       653.40000  2.23582e-10      11693.3
       653.50000  1.90610e-10      9957.46
       653.60000  1.90610e-10      9944.12
       653.70000  1.90610e-10      9928.87
       653.80000  1.90378e-10      9899.64
       653.90000  1.90378e-10      9882.50
       654.00000  1.90378e-10      9863.47
       654.10000  1.90378e-10      9844.43
       654.20000  1.90378e-10      9821.58
       654.30000  1.90378e-10      9798.74
       654.40000  1.90378e-10      9775.89
       654.50000  1.07154e-10      5488.45
       654.60000  1.07154e-10      5473.45
       654.70000  1.07154e-10      5457.37
       654.80000  1.07154e-10      5441.30
       654.90000  1.07154e-10      5424.16
       655.00000  1.07154e-10      5405.94
       655.10000  1.07154e-10      5354.51
       655.20000  1.07154e-10      5305.21
       655.30000  1.07154e-10      5259.14
       655.40000  1.07154e-10      5216.28
       655.50000  1.01254e-10      4890.55
       655.60000  1.01254e-10      4855.11
       655.70000  1.01254e-10      4821.70
       655.80000  1.01254e-10      4791.32
       655.90000  1.01254e-10      4762.97
       656.00000  1.01254e-10      4737.66
       656.10000  1.01254e-10      4715.38
       656.20000  1.01254e-10      4695.13
       656.30000  1.01177e-10      4674.36
       656.40000  1.01177e-10      4659.18
       656.50000  8.17949e-11      3756.84
       656.60000  8.17949e-11      3749.48
       656.70000  8.17949e-11      3743.75
       656.80000  8.17949e-11      3740.48
       656.90000  8.17949e-11      3738.85
       657.00000  8.17949e-11      3739.66
       657.10000  8.17949e-11      3771.56
       657.20000  8.17949e-11      3802.65
       657.30000  8.17949e-11      3832.91
       657.40000  8.17949e-11      3862.36
       657.50000  6.40364e-11      3045.57
       657.60000  6.40364e-11      3067.35
       657.70000  6.40364e-11      3087.84
       657.80000  6.40364e-11      3107.69
       657.90000  6.40364e-11      3126.26
       658.00000  6.40364e-11      3144.83
       658.10000  6.40364e-11      3162.76
       658.20000  6.40364e-11      3179.41
       658.30000  6.40364e-11      3195.42
       658.40000  6.40364e-11      3210.79
       658.50000  3.82142e-11      1924.47
       658.60000  3.82142e-11      1932.87
       658.70000  3.82142e-11      1940.52
       658.80000  3.81745e-11      1946.13
       658.90000  3.81745e-11      1953.01
       659.00000  3.81745e-11      1959.11
       659.10000  3.81745e-11      1965.22
       659.20000  3.81745e-11      1970.95
       659.30000  3.81745e-11      1975.91
       659.40000  3.81745e-11      1980.49
       659.50000  4.45452e-11      2315.91
       659.60000  4.45452e-11      2320.36
       659.70000  4.45452e-11      2323.93
       659.80000  4.45452e-11      2327.49
       659.90000  4.45452e-11      2330.16
       660.00000  4.45452e-11      2332.39
       660.10000  4.45452e-11      2334.17
       660.20000  4.45452e-11      2335.06
       660.30000  4.45452e-11      2335.95
       660.40000  4.45452e-11      2335.95
       660.50000  3.40479e-11      1785.13
       660.60000  3.40479e-11      1784.45
       660.70000  3.40479e-11      1783.43
       660.80000  3.40479e-11      1781.73
       660.90000  3.40479e-11      1780.03
       661.00000  3.40479e-11      1777.64
       661.10000  3.40479e-11      1776.62
       661.20000  3.40479e-11      1775.26
       661.30000  3.39634e-11      1769.83
       661.40000  3.39634e-11      1768.81
       661.50000  2.88681e-11      1502.58
       661.60000  2.88681e-11      1502.01
       661.70000  2.88681e-11      1501.14
       661.80000  2.88681e-11      1500.56
       661.90000  2.88681e-11      1499.99
       662.00000  2.88681e-11      1499.41
       662.10000  2.88681e-11      1498.83
       662.20000  2.88681e-11      1498.25
       662.30000  2.88681e-11      1497.97
       662.40000  2.88681e-11      1497.68
       662.50000  2.40855e-11      1249.07
       662.60000  2.40855e-11      1249.07
       662.70000  2.40855e-11      1248.83
       662.80000  2.40855e-11      1248.59
