PDS_VERSION_ID         = PDS3
RECORD_TYPE            = STREAM
OBJECT                 = TEXT
  PUBLICATION_DATE     = 2014-04-25
  INTERCHANGE_FORMAT   = ASCII
  NOTE                 = "System transmission vs. wavelength."
END_OBJECT             = TEXT
END
    
The systrans directory contains the non-wavelength-integrated system 
transmission values (QE*optics*filter1*filter2) for each filter combination. 
The naming convention for these files is as follows:

<camera><filter 1><filter 2>_systrans.tab

where <camera> is "issna" or "isswa," and <filter 1> and <filter 2> represent
the filter names. For polarized filter combinations, values are given for the
parallel orientation of the filter (full transmission), with values for the 
perpendicular (blocking) orientation provided in files with subscript 
"_b_systrans.tab". 

Columns in systrans files are as follows:

 1st column: Wavelength (nm)  
 2nd column: Transmitted Flux
 3rd column: Transmitted Flux * Solar Flux (phot per cm^2-s-angstrom at 1 AU)

The solar spectrum used for this calculation is provided in solarflux.tab.

\begindata
       600.00000  0.000499825  2.66207e+10
       600.10000  0.000499825  2.65807e+10
       600.20000  0.000499825  2.65357e+10
       600.30000  0.000499825  2.64807e+10
       600.40000  0.000499825  2.64157e+10
       600.50000  0.000483155  2.54719e+10
       600.60000  0.000483155  2.55057e+10
       600.70000  0.000483155  2.55347e+10
       600.80000  0.000483155  2.55637e+10
       600.90000  0.000483155  2.55830e+10
       601.00000  0.000483155  2.55975e+10
       601.10000  0.000483155  2.56024e+10
       601.20000  0.000483155  2.56072e+10
       601.30000  0.000483091  2.56038e+10
       601.40000  0.000483091  2.55942e+10
       601.50000  0.000468990  2.48377e+10
       601.60000  0.000468990  2.47298e+10
       601.70000  0.000468990  2.46407e+10
       601.80000  0.000468990  2.45610e+10
       601.90000  0.000468990  2.45000e+10
       602.00000  0.000468990  2.44531e+10
       602.10000  0.000468990  2.44156e+10
       602.20000  0.000468990  2.43969e+10
       602.30000  0.000468990  2.43922e+10
       602.40000  0.000468990  2.44016e+10
       602.50000  0.000454084  2.36442e+10
       602.60000  0.000454084  2.36805e+10
       602.70000  0.000454084  2.37304e+10
       602.80000  0.000454084  2.37940e+10
       602.90000  0.000454084  2.38712e+10
       603.00000  0.000454084  2.39620e+10
       603.10000  0.000454084  2.40665e+10
       603.20000  0.000454084  2.41845e+10
       603.30000  0.000454084  2.43162e+10
       603.40000  0.000454084  2.44615e+10
       603.50000  0.000441749  2.39517e+10
       603.60000  0.000441749  2.39428e+10
       603.70000  0.000441749  2.39340e+10
       603.80000  0.000441562  2.39150e+10
       603.90000  0.000441562  2.39017e+10
       604.00000  0.000441562  2.38929e+10
       604.10000  0.000441562  2.38797e+10
       604.20000  0.000441562  2.38708e+10
       604.30000  0.000441562  2.38576e+10
       604.40000  0.000441562  2.38488e+10
       604.50000  0.000427198  2.30601e+10
       604.60000  0.000427198  2.30431e+10
       604.70000  0.000427198  2.30260e+10
       604.80000  0.000427198  2.30089e+10
       604.90000  0.000427198  2.29918e+10
       605.00000  0.000427198  2.29790e+10
       605.10000  0.000427198  2.29662e+10
       605.20000  0.000427198  2.29576e+10
       605.30000  0.000427198  2.29448e+10
       605.40000  0.000427198  2.29363e+10
       605.50000  0.000415074  2.22770e+10
       605.60000  0.000415074  2.22728e+10
       605.70000  0.000415074  2.22645e+10
       605.80000  0.000415074  2.22604e+10
       605.90000  0.000415074  2.22604e+10
       606.00000  0.000415074  2.22562e+10
       606.10000  0.000415074  2.22562e+10
       606.20000  0.000415074  2.22562e+10
       606.30000  0.000415085  2.22568e+10
       606.40000  0.000415085  2.22610e+10
       606.50000  0.000403076  2.16210e+10
       606.60000  0.000403076  2.16291e+10
       606.70000  0.000403076  2.16331e+10
       606.80000  0.000403076  2.16412e+10
       606.90000  0.000403076  2.16412e+10
       607.00000  0.000403076  2.16452e+10
       607.10000  0.000403076  2.16452e+10
       607.20000  0.000403076  2.16452e+10
       607.30000  0.000403076  2.16412e+10
       607.40000  0.000403076  2.16371e+10
       607.50000  0.000388489  2.08502e+10
       607.60000  0.000388489  2.08269e+10
       607.70000  0.000388489  2.08075e+10
       607.80000  0.000388489  2.07919e+10
       607.90000  0.000388489  2.07764e+10
       608.00000  0.000388489  2.07609e+10
       608.10000  0.000388489  2.07492e+10
       608.20000  0.000388489  2.07376e+10
       608.30000  0.000388489  2.07298e+10
       608.40000  0.000388489  2.07220e+10
       608.50000  0.000376503  2.00789e+10
       608.60000  0.000376503  2.00751e+10
       608.70000  0.000376503  2.00714e+10
       608.80000  0.000376422  2.00670e+10
       608.90000  0.000376422  2.00708e+10
       609.00000  0.000376422  2.00746e+10
       609.10000  0.000376422  2.00783e+10
       609.20000  0.000376422  2.00859e+10
       609.30000  0.000376422  2.00934e+10
       609.40000  0.000376422  2.01047e+10
       609.50000  0.000366312  1.95794e+10
       609.60000  0.000366312  1.94915e+10
       609.70000  0.000366312  1.94146e+10
       609.80000  0.000366312  1.93486e+10
       609.90000  0.000366312  1.92937e+10
       610.00000  0.000366312  1.92460e+10
       610.10000  0.000366312  1.92058e+10
       610.20000  0.000366312  1.91765e+10
       610.30000  0.000366312  1.91581e+10
       610.40000  0.000366312  1.91508e+10
       610.50000  0.000358470  1.87372e+10
       610.60000  0.000358470  1.88304e+10
       610.70000  0.000358470  1.89129e+10
       610.80000  0.000358470  1.89882e+10
       610.90000  0.000358470  1.90527e+10
       611.00000  0.000358470  1.91065e+10
       611.10000  0.000358470  1.91531e+10
       611.20000  0.000358470  1.91889e+10
       611.30000  0.000358471  1.92176e+10
       611.40000  0.000358471  1.92356e+10
       611.50000  0.000352498  1.89221e+10
       611.60000  0.000352498  1.89221e+10
       611.70000  0.000352498  1.89115e+10
       611.80000  0.000352498  1.88939e+10
       611.90000  0.000352498  1.88657e+10
       612.00000  0.000352498  1.88304e+10
       612.10000  0.000352498  1.87846e+10
       612.20000  0.000352498  1.87282e+10
       612.30000  0.000352498  1.86648e+10
       612.40000  0.000352498  1.85907e+10
       612.50000  0.000346842  1.82127e+10
       612.60000  0.000346842  1.81676e+10
       612.70000  0.000346842  1.81260e+10
       612.80000  0.000346842  1.80913e+10
       612.90000  0.000346842  1.80635e+10
       613.00000  0.000346842  1.80392e+10
       613.10000  0.000346842  1.80219e+10
       613.20000  0.000346842  1.80080e+10
       613.30000  0.000346842  1.80011e+10
       613.40000  0.000346842  1.80011e+10
       613.50000  0.000342808  1.77952e+10
       613.60000  0.000342808  1.78466e+10
       613.70000  0.000342808  1.78912e+10
       613.80000  0.000342434  1.79127e+10
       613.90000  0.000342434  1.79538e+10
       614.00000  0.000342434  1.79915e+10
       614.10000  0.000342434  1.80223e+10
       614.20000  0.000342434  1.80531e+10
       614.30000  0.000342434  1.80805e+10
       614.40000  0.000342434  1.81045e+10
       614.50000  0.000335407  1.77531e+10
       614.60000  0.000335407  1.77699e+10
       614.70000  0.000335407  1.77833e+10
       614.80000  0.000335407  1.77934e+10
       614.90000  0.000335407  1.78001e+10
       615.00000  0.000335407  1.78034e+10
       615.10000  0.000335407  1.78068e+10
       615.20000  0.000335407  1.78034e+10
       615.30000  0.000335407  1.78001e+10
       615.40000  0.000335407  1.77934e+10
       615.50000  0.000328114  1.73933e+10
       615.60000  0.000328114  1.71997e+10
       615.70000  0.000328114  1.70225e+10
       615.80000  0.000328114  1.68683e+10
       615.90000  0.000328114  1.67371e+10
       616.00000  0.000328114  1.66222e+10
       616.10000  0.000328114  1.65304e+10
       616.20000  0.000328114  1.64582e+10
       616.30000  0.000328160  1.64080e+10
       616.40000  0.000328160  1.63785e+10
       616.50000  0.000318502  1.58837e+10
       616.60000  0.000318502  1.60207e+10
       616.70000  0.000318502  1.61481e+10
       616.80000  0.000318502  1.62659e+10
       616.90000  0.000318502  1.63774e+10
       617.00000  0.000318502  1.64825e+10
       617.10000  0.000318502  1.65780e+10
       617.20000  0.000318502  1.66640e+10
       617.30000  0.000318502  1.67437e+10
       617.40000  0.000318502  1.68169e+10
       617.50000  0.000310606  1.64621e+10
       617.60000  0.000310606  1.65149e+10
       617.70000  0.000310606  1.65615e+10
       617.80000  0.000310606  1.66019e+10
       617.90000  0.000310606  1.66299e+10
       618.00000  0.000310606  1.66547e+10
       618.10000  0.000310606  1.66702e+10
       618.20000  0.000310606  1.66764e+10
       618.30000  0.000310606  1.66764e+10
       618.40000  0.000310606  1.66671e+10
       618.50000  0.000300646  1.61176e+10
       618.60000  0.000300646  1.60876e+10
       618.70000  0.000300646  1.60575e+10
       618.80000  0.000300343  1.60203e+10
       618.90000  0.000300343  1.59993e+10
       619.00000  0.000300343  1.59843e+10
       619.10000  0.000300343  1.59723e+10
       619.20000  0.000300343  1.59662e+10
       619.30000  0.000300343  1.59632e+10
       619.40000  0.000300343  1.59632e+10
       619.50000  0.000290300  1.54353e+10
       619.60000  0.000290300  1.54904e+10
       619.70000  0.000290300  1.55398e+10
       619.80000  0.000290300  1.55833e+10
       619.90000  0.000290300  1.56211e+10
       620.00000  0.000290300  1.56501e+10
       620.10000  0.000290300  1.56733e+10
       620.20000  0.000290300  1.56907e+10
       620.30000  0.000290300  1.57023e+10
       620.40000  0.000290300  1.57052e+10
       620.50000  0.000276869  1.49786e+10
       620.60000  0.000276869  1.49177e+10
       620.70000  0.000276869  1.48596e+10
       620.80000  0.000276869  1.48097e+10
       620.90000  0.000276869  1.47654e+10
       621.00000  0.000276869  1.47267e+10
       621.10000  0.000276869  1.46934e+10
       621.20000  0.000276869  1.46685e+10
       621.30000  0.000276514  1.46276e+10
       621.40000  0.000276514  1.46110e+10
       621.50000  0.000258651  1.36594e+10
       621.60000  0.000258651  1.37059e+10
       621.70000  0.000258651  1.37473e+10
       621.80000  0.000258651  1.37809e+10
       621.90000  0.000258651  1.38120e+10
       622.00000  0.000258651  1.38353e+10
       622.10000  0.000258651  1.38534e+10
       622.20000  0.000258651  1.38637e+10
       622.30000  0.000258651  1.38715e+10
       622.40000  0.000258651  1.38715e+10
       622.50000  0.000234146  1.25526e+10
       622.60000  0.000234146  1.25432e+10
       622.70000  0.000234146  1.25291e+10
       622.80000  0.000234146  1.25104e+10
       622.90000  0.000234146  1.24847e+10
       623.00000  0.000234146  1.24566e+10
       623.10000  0.000234146  1.24214e+10
       623.20000  0.000234146  1.23793e+10
       623.30000  0.000234146  1.23348e+10
       623.40000  0.000234146  1.22833e+10
       623.50000  0.000204467  1.06793e+10
       623.60000  0.000204467  1.06773e+10
       623.70000  0.000204467  1.06773e+10
       623.80000  0.000204027  1.06502e+10
       623.90000  0.000204027  1.06482e+10
       624.00000  0.000204027  1.06441e+10
       624.10000  0.000204027  1.06380e+10
       624.20000  0.000204027  1.06319e+10
       624.30000  0.000204027  1.06257e+10
       624.40000  0.000204027  1.06176e+10
       624.50000  0.000169244  8.80071e+09
       624.60000  0.000169244  8.76686e+09
       624.70000  0.000169244  8.73978e+09
       624.80000  0.000169244  8.71608e+09
       624.90000  0.000169244  8.69747e+09
       625.00000  0.000169244  8.68393e+09
       625.10000  0.000169244  8.67547e+09
       625.20000  0.000169244  8.67039e+09
       625.30000  0.000169244  8.67208e+09
       625.40000  0.000169244  8.67716e+09
       625.50000  0.000134109  6.88383e+09
       625.60000  0.000134109  6.89456e+09
       625.70000  0.000134109  6.91065e+09
       625.80000  0.000134109  6.92943e+09
       625.90000  0.000134109  6.95223e+09
       626.00000  0.000134109  6.97905e+09
       626.10000  0.000134109  7.00989e+09
       626.20000  0.000134109  7.04342e+09
       626.30000  0.000133898  7.07114e+09
       626.40000  0.000133898  7.11265e+09
       626.50000  0.000101340  5.41661e+09
       626.60000  0.000101340  5.41763e+09
       626.70000  0.000101340  5.41864e+09
       626.80000  0.000101340  5.41965e+09
       626.90000  0.000101340  5.42067e+09
       627.00000  0.000101340  5.42168e+09
       627.10000  0.000101340  5.42269e+09
       627.20000  0.000101340  5.42269e+09
       627.30000  0.000101340  5.42371e+09
       627.40000  0.000101340  5.42472e+09
       627.50000  7.38400e-05  3.95339e+09
       627.60000  7.38400e-05  3.95635e+09
       627.70000  7.38400e-05  3.95856e+09
       627.80000  7.38400e-05  3.96004e+09
       627.90000  7.38400e-05  3.96151e+09
       628.00000  7.38400e-05  3.96225e+09
       628.10000  7.38400e-05  3.96299e+09
       628.20000  7.38400e-05  3.96299e+09
       628.30000  7.38400e-05  3.96225e+09
       628.40000  7.38400e-05  3.96151e+09
       628.50000  5.21827e-05  2.79856e+09
       628.60000  5.21827e-05  2.79699e+09
       628.70000  5.21827e-05  2.79543e+09
       628.80000  5.20724e-05  2.78744e+09
       628.90000  5.20724e-05  2.78483e+09
       629.00000  5.20724e-05  2.78223e+09
       629.10000  5.20724e-05  2.77911e+09
       629.20000  5.20724e-05  2.77598e+09
       629.30000  5.20724e-05  2.77234e+09
       629.40000  5.20724e-05  2.76817e+09
       629.50000  3.61289e-05  1.91772e+09
       629.60000  3.61289e-05  1.91375e+09
       629.70000  3.61289e-05  1.90978e+09
       629.80000  3.61289e-05  1.90616e+09
       629.90000  3.61289e-05  1.90291e+09
       630.00000  3.61289e-05  1.89966e+09
       630.10000  3.61289e-05  1.89641e+09
       630.20000  3.61289e-05  1.89388e+09
       630.30000  3.61289e-05  1.89099e+09
       630.40000  3.61289e-05  1.88882e+09
       630.50000  2.47647e-05  1.29321e+09
       630.60000  2.47647e-05  1.29173e+09
       630.70000  2.47647e-05  1.29049e+09
       630.80000  2.47647e-05  1.28950e+09
       630.90000  2.47647e-05  1.28851e+09
       631.00000  2.47647e-05  1.28776e+09
       631.10000  2.47647e-05  1.28851e+09
       631.20000  2.47647e-05  1.28925e+09
       631.30000  2.47635e-05  1.29018e+09
       631.40000  2.47635e-05  1.29092e+09
       631.50000  1.69763e-05  8.85485e+08
       631.60000  1.69763e-05  8.85994e+08
       631.70000  1.69763e-05  8.86503e+08
       631.80000  1.69763e-05  8.86843e+08
       631.90000  1.69763e-05  8.87352e+08
       632.00000  1.69763e-05  8.87862e+08
       632.10000  1.69763e-05  8.88371e+08
       632.20000  1.69763e-05  8.88710e+08
       632.30000  1.69763e-05  8.89220e+08
       632.40000  1.69763e-05  8.89729e+08
       632.50000  1.16774e-05  6.12244e+08
       632.60000  1.16774e-05  6.12478e+08
       632.70000  1.16774e-05  6.12828e+08
       632.80000  1.16774e-05  6.13061e+08
       632.90000  1.16774e-05  6.13295e+08
       633.00000  1.16774e-05  6.13645e+08
       633.10000  1.16774e-05  6.13879e+08
       633.20000  1.16774e-05  6.14112e+08
       633.30000  1.16774e-05  6.14346e+08
       633.40000  1.16774e-05  6.14580e+08
       633.50000  8.02532e-06  4.22533e+08
       633.60000  8.02532e-06  4.22694e+08
       633.70000  8.02532e-06  4.22854e+08
       633.80000  8.02409e-06  4.22869e+08
       633.90000  8.02409e-06  4.23030e+08
       634.00000  8.02409e-06  4.23190e+08
       634.10000  8.02409e-06  4.23271e+08
       634.20000  8.02409e-06  4.23431e+08
       634.30000  8.02409e-06  4.23511e+08
       634.40000  8.02409e-06  4.23672e+08
       634.50000  5.58130e-06  2.94748e+08
       634.60000  5.58130e-06  2.94804e+08
       634.70000  5.58130e-06  2.94916e+08
       634.80000  5.58130e-06  2.94972e+08
       634.90000  5.58130e-06  2.95027e+08
       635.00000  5.58130e-06  2.95083e+08
       635.10000  5.58130e-06  2.95139e+08
       635.20000  5.58130e-06  2.95139e+08
       635.30000  5.58130e-06  2.95195e+08
       635.40000  5.58130e-06  2.95195e+08
       635.50000  3.99078e-06  2.11112e+08
       635.60000  3.99078e-06  2.11152e+08
       635.70000  3.99078e-06  2.11152e+08
       635.80000  3.99078e-06  2.11192e+08
       635.90000  3.99078e-06  2.11192e+08
       636.00000  3.99078e-06  2.11232e+08
       636.10000  3.99078e-06  2.11232e+08
       636.20000  3.99078e-06  2.11272e+08
       636.30000  3.96712e-06  2.10020e+08
       636.40000  3.96712e-06  2.10059e+08
       636.50000  2.82931e-06  1.49812e+08
       636.60000  2.82931e-06  1.49840e+08
       636.70000  2.82931e-06  1.49840e+08
       636.80000  2.82931e-06  1.49869e+08
       636.90000  2.82931e-06  1.49869e+08
       637.00000  2.82931e-06  1.49869e+08
       637.10000  2.82931e-06  1.49897e+08
       637.20000  2.82931e-06  1.49897e+08
       637.30000  2.82931e-06  1.49925e+08
       637.40000  2.82931e-06  1.49925e+08
       637.50000  2.03356e-06  1.07758e+08
       637.60000  2.03356e-06  1.07778e+08
       637.70000  2.03356e-06  1.07778e+08
       637.80000  2.03356e-06  1.07799e+08
       637.90000  2.03356e-06  1.07799e+08
       638.00000  2.03356e-06  1.07799e+08
       638.10000  2.03356e-06  1.07819e+08
       638.20000  2.03356e-06  1.07819e+08
       638.30000  2.03356e-06  1.07819e+08
       638.40000  2.03356e-06  1.07839e+08
       638.50000  1.49851e-06  7.94662e+07
       638.60000  1.49851e-06  7.94662e+07
       638.70000  1.49851e-06  7.94811e+07
       638.80000  1.48869e-06  7.89599e+07
       638.90000  1.48869e-06  7.89599e+07
       639.00000  1.48869e-06  7.89599e+07
       639.10000  1.48869e-06  7.88408e+07
       639.20000  1.48869e-06  7.87218e+07
       639.30000  1.48869e-06  7.86027e+07
       639.40000  1.48869e-06  7.84985e+07
       639.50000  1.10656e-06  5.82605e+07
       639.60000  1.10656e-06  5.81941e+07
       639.70000  1.10656e-06  5.81166e+07
       639.80000  1.10656e-06  5.80503e+07
       639.90000  1.10656e-06  5.79949e+07
       640.00000  1.10656e-06  5.79285e+07
       640.10000  1.10656e-06  5.78732e+07
       640.20000  1.10656e-06  5.78289e+07
       640.30000  1.10656e-06  5.77847e+07
       640.40000  1.10656e-06  5.77404e+07
       640.50000  8.12550e-07  4.23663e+07
       640.60000  8.12550e-07  4.23420e+07
       640.70000  8.12550e-07  4.23176e+07
       640.80000  8.12550e-07  4.23013e+07
       640.90000  8.12550e-07  4.22770e+07
       641.00000  8.12550e-07  4.22688e+07
       641.10000  8.12550e-07  4.22851e+07
       641.20000  8.12550e-07  4.23013e+07
       641.30000  8.07054e-07  4.20313e+07
       641.40000  8.07054e-07  4.20475e+07
       641.50000  6.02926e-07  3.14245e+07
       641.60000  6.02926e-07  3.14366e+07
       641.70000  6.02926e-07  3.14486e+07
       641.80000  6.02926e-07  3.14607e+07
       641.90000  6.02926e-07  3.14728e+07
       642.00000  6.02926e-07  3.14848e+07
       642.10000  6.02926e-07  3.14908e+07
       642.20000  6.02926e-07  3.15029e+07
       642.30000  6.02926e-07  3.15150e+07
       642.40000  6.02926e-07  3.15270e+07
       642.50000  4.49848e-07  2.35316e+07
       642.60000  4.49848e-07  2.35406e+07
       642.70000  4.49848e-07  2.35496e+07
       642.80000  4.49848e-07  2.35586e+07
       642.90000  4.49848e-07  2.35676e+07
       643.00000  4.49848e-07  2.35766e+07
       643.10000  4.49848e-07  2.35810e+07
       643.20000  4.49848e-07  2.35900e+07
       643.30000  4.49848e-07  2.35990e+07
       643.40000  4.49848e-07  2.36080e+07
       643.50000  3.41623e-07  1.79352e+07
       643.60000  3.41623e-07  1.79420e+07
       643.70000  3.41623e-07  1.79454e+07
       643.80000  3.41168e-07  1.79284e+07
