PDS_VERSION_ID         = PDS3
RECORD_TYPE            = STREAM
OBJECT                 = TEXT
  PUBLICATION_DATE     = 2014-04-25
  INTERCHANGE_FORMAT   = ASCII
  NOTE                 = "System transmission vs. wavelength."
END_OBJECT             = TEXT
END
    
The systrans directory contains the non-wavelength-integrated system 
transmission values (QE*optics*filter1*filter2) for each filter combination. 
The naming convention for these files is as follows:

<camera><filter 1><filter 2>_systrans.tab

where <camera> is "issna" or "isswa," and <filter 1> and <filter 2> represent
the filter names. For polarized filter combinations, values are given for the
parallel orientation of the filter (full transmission), with values for the 
perpendicular (blocking) orientation provided in files with subscript 
"_b_systrans.tab". 

Columns in systrans files are as follows:

 1st column: Wavelength (nm)  
 2nd column: Transmitted Flux
 3rd column: Transmitted Flux * Solar Flux (phot per cm^2-s-angstrom at 1 AU)

The solar spectrum used for this calculation is provided in solarflux.tab.

\begindata
       600.00000  2.77350e-10      14771.7
       600.10000  2.77350e-10      14749.5
       600.20000  2.77350e-10      14724.5
       600.30000  2.77350e-10      14694.0
       600.40000  2.77350e-10      14657.9
       600.50000  8.16849e-10      43064.3
       600.60000  8.16849e-10      43121.5
       600.70000  8.16849e-10      43170.5
       600.80000  8.16849e-10      43219.5
       600.90000  8.16849e-10      43252.2
       601.00000  8.16849e-10      43276.7
       601.10000  8.16849e-10      43284.9
       601.20000  8.16849e-10      43293.0
       601.30000  8.16742e-10      43287.3
       601.40000  8.16742e-10      43271.0
       601.50000  5.22344e-10      27663.3
       601.60000  5.22344e-10      27543.2
       601.70000  5.22344e-10      27444.0
       601.80000  5.22344e-10      27355.2
       601.90000  5.22344e-10      27287.3
       602.00000  5.22344e-10      27235.0
       602.10000  5.22344e-10      27193.2
       602.20000  5.22344e-10      27172.3
       602.30000  5.22344e-10      27167.1
       602.40000  5.22344e-10      27177.6
       602.50000  4.36605e-10      22734.0
       602.60000  4.36605e-10      22768.9
       602.70000  4.36605e-10      22817.0
       602.80000  4.36605e-10      22878.1
       602.90000  4.36605e-10      22952.3
       603.00000  4.36605e-10      23039.6
       603.10000  4.36605e-10      23140.1
       603.20000  4.36605e-10      23253.6
       603.30000  4.36605e-10      23380.2
       603.40000  4.36605e-10      23519.9
       603.50000  1.77779e-10      9639.18
       603.60000  1.77779e-10      9635.62
       603.70000  1.77779e-10      9632.07
       603.80000  1.77704e-10      9624.42
       603.90000  1.77704e-10      9619.09
       604.00000  1.77704e-10      9615.54
       604.10000  1.77704e-10      9610.21
       604.20000  1.77704e-10      9606.65
       604.30000  1.77704e-10      9601.32
       604.40000  1.77704e-10      9597.77
       604.50000  4.98185e-10      26892.0
       604.60000  4.98185e-10      26872.1
       604.70000  4.98185e-10      26852.2
       604.80000  4.98185e-10      26832.2
       604.90000  4.98185e-10      26812.3
       605.00000  4.98185e-10      26797.4
       605.10000  4.98185e-10      26782.4
       605.20000  4.98185e-10      26772.4
       605.30000  4.98185e-10      26757.5
       605.40000  4.98185e-10      26747.5
       605.50000  1.77818e-10      9543.48
       605.60000  1.77818e-10      9541.70
       605.70000  1.77818e-10      9538.14
       605.80000  1.77818e-10      9536.36
       605.90000  1.77818e-10      9536.36
       606.00000  1.77818e-10      9534.59
       606.10000  1.77818e-10      9534.59
       606.20000  1.77818e-10      9534.59
       606.30000  1.77823e-10      9534.85
       606.40000  1.77823e-10      9536.62
       606.50000  5.60827e-10      30082.8
       606.60000  5.60827e-10      30094.0
       606.70000  5.60827e-10      30099.6
       606.80000  5.60827e-10      30110.8
       606.90000  5.60827e-10      30110.8
       607.00000  5.60827e-10      30116.4
       607.10000  5.60827e-10      30116.4
       607.20000  5.60827e-10      30116.4
       607.30000  5.60827e-10      30110.8
       607.40000  5.60827e-10      30105.2
       607.50000  1.37853e-10      7398.56
       607.60000  1.37853e-10      7390.29
       607.70000  1.37853e-10      7383.40
       607.80000  1.37853e-10      7377.89
       607.90000  1.37853e-10      7372.37
       608.00000  1.37853e-10      7366.86
       608.10000  1.37853e-10      7362.72
       608.20000  1.37853e-10      7358.59
       608.30000  1.37853e-10      7355.83
       608.40000  1.37853e-10      7353.07
       608.50000  4.38104e-10      23364.1
       608.60000  4.38104e-10      23359.7
       608.70000  4.38104e-10      23355.3
       608.80000  4.38009e-10      23350.3
       608.90000  4.38009e-10      23354.7
       609.00000  4.38009e-10      23359.0
       609.10000  4.38009e-10      23363.4
       609.20000  4.38009e-10      23372.2
       609.30000  4.38009e-10      23380.9
       609.40000  4.38009e-10      23394.1
       609.50000  9.70524e-11      5187.45
       609.60000  9.70524e-11      5164.16
       609.70000  9.70524e-11      5143.78
       609.80000  9.70524e-11      5126.31
       609.90000  9.70524e-11      5111.75
       610.00000  9.70524e-11      5099.13
       610.10000  9.70524e-11      5088.46
       610.20000  9.70524e-11      5080.69
       610.30000  9.70524e-11      5075.84
       610.40000  9.70524e-11      5073.90
       610.50000  3.86486e-10      20201.6
       610.60000  3.86486e-10      20302.1
       610.70000  3.86486e-10      20391.0
       610.80000  3.86486e-10      20472.1
       610.90000  3.86486e-10      20541.7
       611.00000  3.86486e-10      20599.7
       611.10000  3.86486e-10      20649.9
       611.20000  3.86486e-10      20688.6
       611.30000  3.86487e-10      20719.6
       611.40000  3.86487e-10      20738.9
       611.50000  3.18900e-10      17118.6
       611.60000  3.18900e-10      17118.6
       611.70000  3.18900e-10      17109.0
       611.80000  3.18900e-10      17093.1
       611.90000  3.18900e-10      17067.5
       612.00000  3.18900e-10      17035.7
       612.10000  3.18900e-10      16994.2
       612.20000  3.18900e-10      16943.2
       612.30000  3.18900e-10      16885.8
       612.40000  3.18900e-10      16818.8
       612.50000  2.42367e-10      12726.7
       612.60000  2.42367e-10      12695.2
       612.70000  2.42367e-10      12666.1
       612.80000  2.42367e-10      12641.9
       612.90000  2.42367e-10      12622.5
       613.00000  2.42367e-10      12605.5
       613.10000  2.42367e-10      12593.4
       613.20000  2.42367e-10      12583.7
       613.30000  2.42367e-10      12578.8
       613.40000  2.42367e-10      12578.8
       613.50000  1.69522e-10      8799.90
       613.60000  1.69522e-10      8825.33
       613.70000  1.69522e-10      8847.37
       613.80000  1.69337e-10      8858.02
       613.90000  1.69337e-10      8878.34
       614.00000  1.69337e-10      8896.97
       614.10000  1.69337e-10      8912.21
       614.20000  1.69337e-10      8927.45
       614.30000  1.69337e-10      8941.00
       614.40000  1.69337e-10      8952.85
       614.50000  3.74813e-10      19838.9
       614.60000  3.74813e-10      19857.6
       614.70000  3.74813e-10      19872.6
       614.80000  3.74813e-10      19883.9
       614.90000  3.74813e-10      19891.3
       615.00000  3.74813e-10      19895.1
       615.10000  3.74813e-10      19898.8
       615.20000  3.74813e-10      19895.1
       615.30000  3.74813e-10      19891.3
       615.40000  3.74813e-10      19883.9
       615.50000  1.84258e-10      9767.49
       615.60000  1.84258e-10      9658.78
       615.70000  1.84258e-10      9559.28
       615.80000  1.84258e-10      9472.68
       615.90000  1.84258e-10      9398.98
       616.00000  1.84258e-10      9334.49
       616.10000  1.84258e-10      9282.89
       616.20000  1.84258e-10      9242.36
       616.30000  1.84284e-10      9214.18
       616.40000  1.84284e-10      9197.60
       616.50000  1.17263e-10      5847.89
       616.60000  1.17263e-10      5898.32
       616.70000  1.17263e-10      5945.22
       616.80000  1.17263e-10      5988.61
       616.90000  1.17263e-10      6029.65
       617.00000  1.17263e-10      6068.35
       617.10000  1.17263e-10      6103.52
       617.20000  1.17263e-10      6135.19
       617.30000  1.17263e-10      6164.50
       617.40000  1.17263e-10      6191.47
       617.50000  1.33849e-10      7094.01
       617.60000  1.33849e-10      7116.76
       617.70000  1.33849e-10      7136.84
       617.80000  1.33849e-10      7154.24
       617.90000  1.33849e-10      7166.29
       618.00000  1.33849e-10      7177.00
       618.10000  1.33849e-10      7183.69
       618.20000  1.33849e-10      7186.37
       618.30000  1.33849e-10      7186.37
       618.40000  1.33849e-10      7182.35
       618.50000  1.51101e-10      8100.55
       618.60000  1.51101e-10      8085.44
       618.70000  1.51101e-10      8070.33
       618.80000  1.50949e-10      8051.64
       618.90000  1.50949e-10      8041.08
       619.00000  1.50949e-10      8033.53
       619.10000  1.50949e-10      8027.49
       619.20000  1.50949e-10      8024.47
       619.30000  1.50949e-10      8022.96
       619.40000  1.50949e-10      8022.96
       619.50000  1.23491e-10      6566.03
       619.60000  1.23491e-10      6589.49
       619.70000  1.23491e-10      6610.49
       619.80000  1.23491e-10      6629.01
       619.90000  1.23491e-10      6645.07
       620.00000  1.23491e-10      6657.42
       620.10000  1.23491e-10      6667.29
       620.20000  1.23491e-10      6674.70
       620.30000  1.23491e-10      6679.64
       620.40000  1.23491e-10      6680.88
       620.50000  3.18971e-10      17256.3
       620.60000  3.18971e-10      17186.2
       620.70000  3.18971e-10      17119.2
       620.80000  3.18971e-10      17061.8
       620.90000  3.18971e-10      17010.7
       621.00000  3.18971e-10      16966.1
       621.10000  3.18971e-10      16927.8
       621.20000  3.18971e-10      16899.1
       621.30000  3.18562e-10      16851.9
       621.40000  3.18562e-10      16832.8
       621.50000  2.38542e-10      12597.4
       621.60000  2.38542e-10      12640.3
       621.70000  2.38542e-10      12678.5
       621.80000  2.38542e-10      12709.5
       621.90000  2.38542e-10      12738.2
       622.00000  2.38542e-10      12759.6
       622.10000  2.38542e-10      12776.3
       622.20000  2.38542e-10      12785.9
       622.30000  2.38542e-10      12793.0
       622.40000  2.38542e-10      12793.0
       622.50000  1.02941e-10      5518.68
       622.60000  1.02941e-10      5514.56
       622.70000  1.02941e-10      5508.38
       622.80000  1.02941e-10      5500.15
       622.90000  1.02941e-10      5488.82
       623.00000  1.02941e-10      5476.47
       623.10000  1.02941e-10      5461.03
       623.20000  1.02941e-10      5442.50
       623.30000  1.02941e-10      5422.94
       623.40000  1.02941e-10      5400.29
       623.50000  1.15622e-11      603.893
       623.60000  1.15622e-11      603.777
       623.70000  1.15622e-11      603.777
       623.80000  1.15373e-11      602.247
       623.90000  1.15373e-11      602.132
       624.00000  1.15373e-11      601.901
       624.10000  1.15373e-11      601.555
       624.20000  1.15373e-11      601.208
       624.30000  1.15373e-11      600.862
       624.40000  1.15373e-11      600.401
       624.50000  9.38382e-11      4879.58
       624.60000  9.38382e-11      4860.82
       624.70000  9.38382e-11      4845.80
       624.80000  9.38382e-11      4832.67
       624.90000  9.38382e-11      4822.34
       625.00000  9.38382e-11      4814.84
       625.10000  9.38382e-11      4810.14
       625.20000  9.38382e-11      4807.33
       625.30000  9.38382e-11      4808.27
       625.40000  9.38382e-11      4811.08
       625.50000  1.56102e-10      8012.72
       625.60000  1.56102e-10      8025.21
       625.70000  1.56102e-10      8043.94
       625.80000  1.56102e-10      8065.80
       625.90000  1.56102e-10      8092.34
       626.00000  1.56102e-10      8123.56
       626.10000  1.56102e-10      8159.46
       626.20000  1.56102e-10      8198.49
       626.30000  1.55856e-10      8230.75
       626.40000  1.55856e-10      8279.07
       626.50000  7.45699e-11      3985.76
       626.60000  7.45699e-11      3986.51
       626.70000  7.45699e-11      3987.25
       626.80000  7.45699e-11      3988.00
       626.90000  7.45699e-11      3988.74
       627.00000  7.45699e-11      3989.49
       627.10000  7.45699e-11      3990.23
       627.20000  7.45699e-11      3990.23
       627.30000  7.45699e-11      3990.98
       627.40000  7.45699e-11      3991.73
       627.50000  1.18497e-10      6344.34
       627.60000  1.18497e-10      6349.08
       627.70000  1.18497e-10      6352.63
       627.80000  1.18497e-10      6355.00
       627.90000  1.18497e-10      6357.38
       628.00000  1.18497e-10      6358.56
       628.10000  1.18497e-10      6359.74
       628.20000  1.18497e-10      6359.74
       628.30000  1.18497e-10      6358.56
       628.40000  1.18497e-10      6357.38
       628.50000  2.84006e-11      1523.13
       628.60000  2.84006e-11      1522.27
       628.70000  2.84006e-11      1521.42
       628.80000  2.83406e-11      1517.07
       628.90000  2.83406e-11      1515.66
       629.00000  2.83406e-11      1514.24
       629.10000  2.83406e-11      1512.54
       629.20000  2.83406e-11      1510.84
       629.30000  2.83406e-11      1508.85
       629.40000  2.83406e-11      1506.59
       629.50000  4.80899e-11      2552.61
       629.60000  4.80899e-11      2547.32
       629.70000  4.80899e-11      2542.03
       629.80000  4.80899e-11      2537.22
       629.90000  4.80899e-11      2532.89
       630.00000  4.80899e-11      2528.57
       630.10000  4.80899e-11      2524.24
       630.20000  4.80899e-11      2520.87
       630.30000  4.80899e-11      2517.02
       630.40000  4.80899e-11      2514.14
       630.50000  4.51150e-11      2355.91
       630.60000  4.51150e-11      2353.20
       630.70000  4.51150e-11      2350.94
       630.80000  4.51150e-11      2349.14
       630.90000  4.51150e-11      2347.33
       631.00000  4.51150e-11      2345.98
       631.10000  4.51150e-11      2347.33
       631.20000  4.51150e-11      2348.69
       631.30000  4.51128e-11      2350.38
       631.40000  4.51128e-11      2351.73
       631.50000  1.53179e-10      7989.80
       631.60000  1.53179e-10      7994.40
       631.70000  1.53179e-10      7998.99
       631.80000  1.53179e-10      8002.06
       631.90000  1.53179e-10      8006.65
       632.00000  1.53179e-10      8011.25
       632.10000  1.53179e-10      8015.84
       632.20000  1.53179e-10      8018.90
       632.30000  1.53179e-10      8023.50
       632.40000  1.53179e-10      8028.10
       632.50000  5.07864e-12      266.273
       632.60000  5.07864e-12      266.375
       632.70000  5.07864e-12      266.527
       632.80000  5.07864e-12      266.629
       632.90000  5.07864e-12      266.730
       633.00000  5.07864e-12      266.883
       633.10000  5.07864e-12      266.984
       633.20000  5.07864e-12      267.086
       633.30000  5.07864e-12      267.187
       633.40000  5.07864e-12      267.289
       633.50000  2.07730e-11      1093.70
       633.60000  2.07730e-11      1094.11
       633.70000  2.07730e-11      1094.53
       633.80000  2.07698e-11      1094.57
       633.90000  2.07698e-11      1094.98
       634.00000  2.07698e-11      1095.40
       634.10000  2.07698e-11      1095.60
       634.20000  2.07698e-11      1096.02
       634.30000  2.07698e-11      1096.23
       634.40000  2.07698e-11      1096.64
       634.50000  1.03027e-10      5440.84
       634.60000  1.03027e-10      5441.87
       634.70000  1.03027e-10      5443.93
       634.80000  1.03027e-10      5444.96
       634.90000  1.03027e-10      5445.99
       635.00000  1.03027e-10      5447.02
       635.10000  1.03027e-10      5448.05
       635.20000  1.03027e-10      5448.05
       635.30000  1.03027e-10      5449.08
       635.40000  1.03027e-10      5449.08
       635.50000  1.30173e-10      6886.17
       635.60000  1.30173e-10      6887.47
       635.70000  1.30173e-10      6887.47
       635.80000  1.30173e-10      6888.77
       635.90000  1.30173e-10      6888.77
       636.00000  1.30173e-10      6890.07
       636.10000  1.30173e-10      6890.07
       636.20000  1.30173e-10      6891.38
       636.30000  1.29402e-10      6850.53
       636.40000  1.29402e-10      6851.83
       636.50000  1.91849e-10      10158.4
       636.60000  1.91849e-10      10160.3
       636.70000  1.91849e-10      10160.3
       636.80000  1.91849e-10      10162.2
       636.90000  1.91849e-10      10162.2
       637.00000  1.91849e-10      10162.2
       637.10000  1.91849e-10      10164.2
       637.20000  1.91849e-10      10164.2
       637.30000  1.91849e-10      10166.1
       637.40000  1.91849e-10      10166.1
       637.50000  7.00016e-11      3709.38
       637.60000  7.00016e-11      3710.08
       637.70000  7.00016e-11      3710.08
       637.80000  7.00016e-11      3710.78
       637.90000  7.00016e-11      3710.78
       638.00000  7.00016e-11      3710.78
       638.10000  7.00016e-11      3711.48
       638.20000  7.00016e-11      3711.48
       638.30000  7.00016e-11      3711.48
       638.40000  7.00016e-11      3712.18
       638.50000  1.14013e-12      60.4613
       638.60000  1.14013e-12      60.4613
       638.70000  1.14013e-12      60.4727
       638.80000  1.13266e-12      60.0761
       638.90000  1.13266e-12      60.0761
       639.00000  1.13266e-12      60.0761
       639.10000  1.13266e-12      59.9855
       639.20000  1.13266e-12      59.8949
       639.30000  1.13266e-12      59.8043
       639.40000  1.13266e-12      59.7250
       639.50000  6.88616e-11      3625.56
       639.60000  6.88616e-11      3621.43
       639.70000  6.88616e-11      3616.61
       639.80000  6.88616e-11      3612.48
       639.90000  6.88616e-11      3609.04
       640.00000  6.88616e-11      3604.91
       640.10000  6.88616e-11      3601.46
       640.20000  6.88616e-11      3598.71
       640.30000  6.88616e-11      3595.95
       640.40000  6.88616e-11      3593.20
       640.50000  7.89007e-11      4113.89
       640.60000  7.89007e-11      4111.52
       640.70000  7.89007e-11      4109.15
       640.80000  7.89007e-11      4107.57
       640.90000  7.89007e-11      4105.21
       641.00000  7.89007e-11      4104.42
       641.10000  7.89007e-11      4106.00
       641.20000  7.89007e-11      4107.57
       641.30000  7.83671e-11      4081.36
       641.40000  7.83671e-11      4082.92
       641.50000  8.35670e-11      4355.51
       641.60000  8.35670e-11      4357.19
       641.70000  8.35670e-11      4358.86
       641.80000  8.35670e-11      4360.53
       641.90000  8.35670e-11      4362.20
       642.00000  8.35670e-11      4363.87
       642.10000  8.35670e-11      4364.71
       642.20000  8.35670e-11      4366.38
       642.30000  8.35670e-11      4368.05
       642.40000  8.35670e-11      4369.72
       642.50000  3.62796e-11      1897.79
       642.60000  3.62796e-11      1898.51
       642.70000  3.62796e-11      1899.24
       642.80000  3.62796e-11      1899.96
       642.90000  3.62796e-11      1900.69
       643.00000  3.62796e-11      1901.41
       643.10000  3.62796e-11      1901.78
       643.20000  3.62796e-11      1902.50
       643.30000  3.62796e-11      1903.23
       643.40000  3.62796e-11      1903.95
       643.50000  1.38662e-13      7.27974
       643.60000  1.38662e-13      7.28252
       643.70000  1.38662e-13      7.28390
       643.80000  1.38477e-13      7.27697
