PDS_VERSION_ID         = PDS3
RECORD_TYPE            = STREAM
OBJECT                 = TEXT
  PUBLICATION_DATE     = 2014-04-25
  INTERCHANGE_FORMAT   = ASCII
  NOTE                 = "System transmission vs. wavelength."
END_OBJECT             = TEXT
END
    
The systrans directory contains the non-wavelength-integrated system 
transmission values (QE*optics*filter1*filter2) for each filter combination. 
The naming convention for these files is as follows:

<camera><filter 1><filter 2>_systrans.tab

where <camera> is "issna" or "isswa," and <filter 1> and <filter 2> represent
the filter names. For polarized filter combinations, values are given for the
parallel orientation of the filter (full transmission), with values for the 
perpendicular (blocking) orientation provided in files with subscript 
"_b_systrans.tab". 

Columns in systrans files are as follows:

 1st column: Wavelength (nm)  
 2nd column: Transmitted Flux
 3rd column: Transmitted Flux * Solar Flux (phot per cm^2-s-angstrom at 1 AU)

The solar spectrum used for this calculation is provided in solarflux.tab.

\begindata
       661.00000  6.83113e-13      35.6653
       661.10000  6.83113e-13      35.6448
       661.20000  6.83113e-13      35.6175
       661.30000  6.81417e-13      35.5086
       661.40000  6.81417e-13      35.4882
       661.50000  2.76724e-12      144.035
       661.60000  2.76724e-12      143.980
       661.70000  2.76724e-12      143.897
       661.80000  2.76724e-12      143.841
       661.90000  2.76724e-12      143.786
       662.00000  2.76724e-12      143.731
       662.10000  2.76724e-12      143.675
       662.20000  2.76724e-12      143.620
       662.30000  2.76724e-12      143.592
       662.40000  2.76724e-12      143.565
       662.50000  5.92569e-12      307.306
       662.60000  5.92569e-12      307.306
       662.70000  5.92569e-12      307.247
       662.80000  5.92569e-12      307.188
       662.90000  5.92569e-12      307.188
       663.00000  5.92569e-12      307.188
       663.10000  5.92569e-12      307.425
       663.20000  5.92569e-12      307.602
       663.30000  5.92569e-12      307.839
       663.40000  5.92569e-12      308.017
       663.50000  3.12980e-12      162.781
       663.60000  3.12980e-12      162.875
       663.70000  3.12980e-12      162.937
       663.80000  3.12312e-12      162.683
       663.90000  3.12312e-12      162.746
       664.00000  3.12312e-12      162.777
       664.10000  3.12312e-12      162.839
       664.20000  3.12312e-12      162.871
       664.30000  3.12312e-12      162.902
       664.40000  3.12312e-12      162.933
       664.50000  7.86733e-13      41.0439
       664.60000  7.86733e-13      41.0439
       664.70000  7.86733e-13      41.0439
       664.80000  7.86733e-13      41.0439
       664.90000  7.86733e-13      41.0439
       665.00000  7.86733e-13      41.0360
       665.10000  7.86733e-13      41.0281
       665.20000  7.86733e-13      41.0203
       665.30000  7.86733e-13      41.0045
       665.40000  7.86733e-13      40.9888
       665.50000  8.34412e-13      43.4562
       665.60000  8.34412e-13      43.4395
       665.70000  8.34412e-13      43.4145
       665.80000  8.34412e-13      43.3978
       665.90000  8.34412e-13      43.3727
       666.00000  8.34412e-13      43.3394
       666.10000  8.34412e-13      43.3143
       666.20000  8.34412e-13      43.2810
       666.30000  8.32316e-13      43.1390
       666.40000  8.32316e-13      43.1057
       666.50000  1.28231e-13      6.63467
       666.60000  1.28231e-13      6.62826
       666.70000  1.28231e-13      6.62185
       666.80000  1.28231e-13      6.61543
       666.90000  1.28231e-13      6.60902
       667.00000  1.28231e-13      6.60133
       667.10000  1.28231e-13      6.60902
       667.20000  1.28231e-13      6.61543
       667.30000  1.28231e-13      6.62185
       667.40000  1.28231e-13      6.62826
       667.50000  2.89466e-12      149.769
       667.60000  2.89466e-12      149.885
       667.70000  2.89466e-12      150.001
       667.80000  2.89466e-12      150.088
       667.90000  2.89466e-12      150.175
       668.00000  2.89466e-12      150.262
       668.10000  2.89466e-12      150.348
       668.20000  2.89466e-12      150.406
       668.30000  2.89466e-12      150.464
       668.40000  2.89466e-12      150.493
       668.50000  4.17879e-13      21.7297
       668.60000  4.17879e-13      21.7339
       668.70000  4.17879e-13      21.7339
       668.80000  4.17195e-13      21.6983
       668.90000  4.17195e-13      21.6983
       669.00000  4.17195e-13      21.6942
       669.10000  4.17195e-13      21.6650
       669.20000  4.17195e-13      21.6357
       669.30000  4.17195e-13      21.6107
       669.40000  4.17195e-13      21.5857
       669.50000  9.86556e-13      50.9852
       669.60000  9.86556e-13      50.9260
       669.70000  9.86556e-13      50.8767
       669.80000  9.86556e-13      50.8274
       669.90000  9.86556e-13      50.7780
       670.00000  9.86556e-13      50.7386
       670.10000  9.86556e-13      50.6991
       670.20000  9.86556e-13      50.6596
       670.30000  9.86556e-13      50.6202
       670.40000  9.86556e-13      50.5906
       670.50000  1.10909e-13      5.68411
       670.60000  1.10909e-13      5.68078
       670.70000  1.10909e-13      5.67857
       670.80000  1.10909e-13      5.67635
       670.90000  1.10909e-13      5.67413
       671.00000  1.10909e-13      5.67302
       671.10000  1.10909e-13      5.67080
       671.20000  1.10909e-13      5.67080
       671.30000  1.10914e-13      5.66991
       671.40000  1.10914e-13      5.66991
       671.50000  3.93874e-12      201.348
       671.60000  3.93874e-12      201.348
       671.70000  3.93874e-12      201.348
       671.80000  3.93874e-12      201.388
       671.90000  3.93874e-12      201.427
       672.00000  3.93874e-12      201.506
       672.10000  3.93874e-12      201.585
       672.20000  3.93874e-12      201.663
       672.30000  3.93874e-12      201.742
       672.40000  3.93874e-12      201.860
       672.50000  1.12318e-12      57.5966
       672.60000  1.12318e-12      57.6303
       672.70000  1.12318e-12      57.6640
       672.80000  1.12318e-12      57.7089
       672.90000  1.12318e-12      57.7538
       673.00000  1.12318e-12      57.8100
       673.10000  1.12318e-12      57.7875
       673.20000  1.12318e-12      57.7650
       673.30000  1.12318e-12      57.7426
       673.40000  1.12318e-12      57.7313
       673.50000  3.67525e-14      1.88834
       673.60000  3.67525e-14      1.88797
       673.70000  3.67525e-14      1.88761
       673.80000  3.67672e-14      1.88763
       673.90000  3.67672e-14      1.88726
       674.00000  3.67672e-14      1.88689
       674.10000  3.67672e-14      1.88652
       674.20000  3.67672e-14      1.88615
       674.30000  3.67672e-14      1.88579
       674.40000  3.67672e-14      1.88542
       674.50000  1.61909e-12      83.0106
       674.60000  1.61909e-12      83.0106
       674.70000  1.61909e-12      82.9944
       674.80000  1.61909e-12      82.9944
       674.90000  1.61909e-12      82.9782
       675.00000  1.61909e-12      82.9782
       675.10000  1.61909e-12      82.9944
       675.20000  1.61909e-12      83.0106
       675.30000  1.61909e-12      83.0268
       675.40000  1.61909e-12      83.0429
       675.50000  9.15868e-14      4.69749
       675.60000  9.15868e-14      4.69840
       675.70000  9.15868e-14      4.69932
       675.80000  9.15868e-14      4.69932
       675.90000  9.15868e-14      4.70024
       676.00000  9.15868e-14      4.70024
       676.10000  9.15868e-14      4.70115
       676.20000  9.15868e-14      4.70115
       676.30000  9.14934e-14      4.69636
       676.40000  9.14934e-14      4.69636
       676.50000  5.08066e-12      260.841
       676.60000  5.08066e-12      260.841
       676.70000  5.08066e-12      260.841
       676.80000  5.08066e-12      260.790
       676.90000  5.08066e-12      260.790
       677.00000  5.08066e-12      260.790
       677.10000  5.08066e-12      260.790
       677.20000  5.08066e-12      260.739
       677.30000  5.08066e-12      260.739
       677.40000  5.08066e-12      260.689
       677.50000  4.55365e-12      233.648
       677.60000  4.55365e-12      233.602
       677.70000  4.55365e-12      233.602
       677.80000  4.55365e-12      233.557
       677.90000  4.55365e-12      233.511
       678.00000  4.55365e-12      233.466
       678.10000  4.55365e-12      233.420
       678.20000  4.55365e-12      233.375
       678.30000  4.55365e-12      233.329
       678.40000  4.55365e-12      233.284
       678.50000  1.75072e-14     0.896545
       678.60000  1.75072e-14     0.896370
       678.70000  1.75072e-14     0.896195
       678.80000  1.75059e-14     0.895777
       678.90000  1.75059e-14     0.895602
       679.00000  1.75059e-14     0.895252
       679.10000  1.75059e-14     0.895252
       679.20000  1.75059e-14     0.895427
       679.30000  1.75059e-14     0.895427
       679.40000  1.75059e-14     0.895427
       679.50000  4.29117e-12      219.493
       679.60000  4.29117e-12      219.493
       679.70000  4.29117e-12      219.493
       679.80000  4.29117e-12      219.493
       679.90000  4.29117e-12      219.493
       680.00000  4.29117e-12      219.450
       680.10000  4.29117e-12      219.450
       680.20000  4.29117e-12      219.450
       680.30000  4.29117e-12      219.407
       680.40000  4.29117e-12      219.407
       680.50000  6.42778e-13      32.8588
       680.60000  6.42778e-13      32.8588
       680.70000  6.42778e-13      32.8524
       680.80000  6.42778e-13      32.8460
       680.90000  6.42778e-13      32.8395
       681.00000  6.42778e-13      32.8395
       681.10000  6.42778e-13      32.8331
       681.20000  6.42778e-13      32.8267
       681.30000  6.42717e-13      32.8236
       681.40000  6.42717e-13      32.8172
       681.50000  2.61033e-12      133.257
       681.60000  2.61033e-12      133.231
       681.70000  2.61033e-12      133.205
       681.80000  2.61033e-12      133.153
       681.90000  2.61033e-12      133.127
       682.00000  2.61033e-12      133.101
       682.10000  2.61033e-12      133.049
       682.20000  2.61033e-12      132.996
       682.30000  2.61033e-12      132.970
       682.40000  2.61033e-12      132.918
       682.50000  3.58728e-13      18.2593
       682.60000  3.58728e-13      18.2521
       682.70000  3.58728e-13      18.2449
       682.80000  3.58728e-13      18.2377
       682.90000  3.58728e-13      18.2270
       683.00000  3.58728e-13      18.2198
       683.10000  3.58728e-13      18.2126
       683.20000  3.58728e-13      18.2019
       683.30000  3.58728e-13      18.1911
       683.40000  3.58728e-13      18.1803
       683.50000  5.79253e-13      29.3449
       683.60000  5.79253e-13      29.3276
       683.70000  5.79253e-13      29.3102
       683.80000  5.78809e-13      29.2646
       683.90000  5.78809e-13      29.2472
       684.00000  5.78809e-13      29.2298
       684.10000  5.78809e-13      29.2067
       684.20000  5.78809e-13      29.1893
       684.30000  5.78809e-13      29.1662
       684.40000  5.78809e-13      29.1488
       684.50000  1.11564e-12      56.1388
       684.60000  1.11564e-12      56.0942
       684.70000  1.11564e-12      56.0496
       684.80000  1.11564e-12      56.0049
       684.90000  1.11564e-12      55.9492
       685.00000  1.11564e-12      55.9045
       685.10000  1.11564e-12      55.9492
       685.20000  1.11564e-12      56.0049
       685.30000  1.11564e-12      56.0496
       685.40000  1.11564e-12      56.0830
       685.50000  4.92990e-12      248.023
       685.60000  4.92990e-12      248.220
       685.70000  4.92990e-12      248.368
       685.80000  4.92990e-12      248.516
       685.90000  4.92990e-12      248.664
       686.00000  4.92990e-12      248.812
       686.10000  4.92990e-12      248.960
       686.20000  4.92990e-12      249.058
       686.30000  4.92472e-12      248.945
       686.40000  4.92472e-12      249.043
       686.50000  6.80626e-13      34.4329
       686.60000  6.80626e-13      34.4465
       686.70000  6.80626e-13      34.4601
       686.80000  6.80626e-13      34.4669
       686.90000  6.80626e-13      34.4805
       687.00000  6.80626e-13      34.4873
       687.10000  6.80626e-13      34.4941
       687.20000  6.80626e-13      34.4941
       687.30000  6.80626e-13      34.4941
       687.40000  6.80626e-13      34.4941
       687.50000  1.53857e-12      77.9745
       687.60000  1.53857e-12      77.9745
       687.70000  1.53857e-12      77.9745
       687.80000  1.53857e-12      77.9745
       687.90000  1.53857e-12      77.9745
       688.00000  1.53857e-12      77.9591
       688.10000  1.53857e-12      77.9591
       688.20000  1.53857e-12      77.9591
       688.30000  1.53857e-12      77.9437
       688.40000  1.53857e-12      77.9437
       688.50000  3.80318e-13      19.2631
       688.60000  3.80318e-13      19.2593
       688.70000  3.80318e-13      19.2593
       688.80000  3.79833e-13      19.2310
       688.90000  3.79833e-13      19.2272
       689.00000  3.79833e-13      19.2234
       689.10000  3.79833e-13      19.2196
       689.20000  3.79833e-13      19.2158
       689.30000  3.79833e-13      19.2120
       689.40000  3.79833e-13      19.2082
       689.50000  1.03878e-12      52.5206
       689.60000  1.03878e-12      52.5103
       689.70000  1.03878e-12      52.4895
       689.80000  1.03878e-12      52.4791
       689.90000  1.03878e-12      52.4687
       690.00000  1.03878e-12      52.4479
       690.10000  1.03878e-12      52.4272
       690.20000  1.03878e-12      52.4168
       690.30000  1.03878e-12      52.3960
       690.40000  1.03878e-12      52.3752
       690.50000  4.19362e-12      211.401
       690.60000  4.19362e-12      211.317
       690.70000  4.19362e-12      211.233
       690.80000  4.19362e-12      211.149
       690.90000  4.19362e-12      211.065
       691.00000  4.19362e-12      210.981
       691.10000  4.19362e-12      211.065
       691.20000  4.19362e-12      211.107
       691.30000  4.18962e-12      210.989
       691.40000  4.18962e-12      211.031
       691.50000  7.95883e-14      4.00966
       691.60000  7.95883e-14      4.01125
       691.70000  7.95883e-14      4.01205
       691.80000  7.95883e-14      4.01284
       691.90000  7.95883e-14      4.01364
       692.00000  7.95883e-14      4.01364
       692.10000  7.95883e-14      4.01444
       692.20000  7.95883e-14      4.01523
       692.30000  7.95883e-14      4.01523
       692.40000  7.95883e-14      4.01523
       692.50000  3.79361e-12      191.425
       692.60000  3.79361e-12      191.425
       692.70000  3.79361e-12      191.425
       692.80000  3.79361e-12      191.425
       692.90000  3.79361e-12      191.425
       693.00000  3.79361e-12      191.387
       693.10000  3.79361e-12      191.387
       693.20000  3.79361e-12      191.350
       693.30000  3.79361e-12      191.312
       693.40000  3.79361e-12      191.274
       693.50000  4.56157e-12      229.949
       693.60000  4.56157e-12      229.903
       693.70000  4.56157e-12      229.858
       693.80000  4.54347e-12      228.900
       693.90000  4.54347e-12      228.809
       694.00000  4.54347e-12      228.764
       694.10000  4.54347e-12      228.718
       694.20000  4.54347e-12      228.628
       694.30000  4.54347e-12      228.582
       694.40000  4.54347e-12      228.491
       694.50000  3.70167e-12      186.083
       694.60000  3.70167e-12      186.046
       694.70000  3.70167e-12      185.972
       694.80000  3.70167e-12      185.898
       694.90000  3.70167e-12      185.824
       695.00000  3.70167e-12      185.750
       695.10000  3.70167e-12      185.676
       695.20000  3.70167e-12      185.602
       695.30000  3.70167e-12      185.490
       695.40000  3.70167e-12      185.416
       695.50000  1.81410e-12      90.8322
       695.60000  1.81410e-12      90.7777
       695.70000  1.81410e-12      90.7415
       695.80000  1.81410e-12      90.6870
       695.90000  1.81410e-12      90.6326
       696.00000  1.81410e-12      90.5963
       696.10000  1.81410e-12      90.5419
       696.20000  1.81410e-12      90.4875
       696.30000  1.81232e-12      90.3443
       696.40000  1.81232e-12      90.2899
       696.50000  2.61778e-12      130.339
       696.60000  2.61778e-12      130.261
       696.70000  2.61778e-12      130.156
       696.80000  2.61778e-12      130.077
       696.90000  2.61778e-12      129.999
       697.00000  2.61778e-12      129.894
       697.10000  2.61778e-12      130.077
       697.20000  2.61778e-12      130.208
       697.30000  2.61778e-12      130.365
       697.40000  2.61778e-12      130.496
       697.50000  1.11419e-11      555.979
       697.60000  1.11419e-11      556.425
       697.70000  1.11419e-11      556.871
       697.80000  1.11419e-11      557.205
       697.90000  1.11419e-11      557.539
       698.00000  1.11419e-11      557.762
       698.10000  1.11419e-11      557.985
       698.20000  1.11419e-11      558.208
       698.30000  1.11419e-11      558.319
       698.40000  1.11419e-11      558.430
       698.50000  1.20161e-11      602.368
       698.60000  1.20161e-11      602.368
       698.70000  1.20161e-11      602.248
       698.80000  1.19956e-11      601.100
       698.90000  1.19956e-11      600.980
       699.00000  1.19956e-11      600.740
       699.10000  1.19956e-11      599.661
       699.20000  1.19956e-11      598.461
       699.30000  1.19956e-11      597.501
       699.40000  1.19956e-11      596.422
       699.50000  2.52950e-12      125.564
       699.60000  2.52950e-12      125.362
       699.70000  2.52950e-12      125.185
       699.80000  2.52950e-12      125.008
       699.90000  2.52950e-12      124.831
       700.00000  2.52950e-12      124.679
       700.10000  2.52950e-12      124.527
       700.20000  2.52950e-12      124.376
       700.30000  2.52950e-12      124.249
       700.40000  2.52950e-12      124.123
       700.50000  8.60519e-12      421.826
       700.60000  8.60519e-12      421.482
       700.70000  8.60519e-12      421.138
       700.80000  8.60519e-12      420.880
       700.90000  8.60519e-12      420.622
       701.00000  8.60519e-12      420.364
       701.10000  8.60519e-12      420.277
       701.20000  8.60519e-12      420.191
       701.30000  8.59932e-12      419.819
       701.40000  8.59932e-12      419.819
       701.50000  2.63894e-13      12.8833
       701.60000  2.63894e-13      12.8833
       701.70000  2.63894e-13      12.8833
       701.80000  2.63894e-13      12.8859
       701.90000  2.63894e-13      12.8859
       702.00000  2.63894e-13      12.8886
       702.10000  2.63894e-13      12.8939
       702.20000  2.63894e-13      12.8965
       702.30000  2.63894e-13      12.9018
       702.40000  2.63894e-13      12.9044
       702.50000  8.79299e-12      430.153
       702.60000  8.79299e-12      430.417
       702.70000  8.79299e-12      430.593
       702.80000  8.79299e-12      430.857
       702.90000  8.79299e-12      431.120
       703.00000  8.79299e-12      431.384
       703.10000  8.79299e-12      432.176
       703.20000  8.79299e-12      432.967
       703.30000  8.79299e-12      433.670
       703.40000  8.79299e-12      434.374
       703.50000  4.57162e-12      226.158
       703.60000  4.57162e-12      226.524
       703.70000  4.57162e-12      226.798
       703.80000  4.55932e-12      226.507
       703.90000  4.55932e-12      226.781
       704.00000  4.55932e-12      227.008
       704.10000  4.55932e-12      227.282
       704.20000  4.55932e-12      227.510
       704.30000  4.55932e-12      227.692
       704.40000  4.55932e-12      227.875
       704.50000  8.29806e-13      41.5069
       704.60000  8.29806e-13      41.5401
       704.70000  8.29806e-13      41.5650
       704.80000  8.29806e-13      41.5816
