PDS_VERSION_ID         = PDS3
RECORD_TYPE            = STREAM
OBJECT                 = TEXT
  PUBLICATION_DATE     = 2014-04-25
  INTERCHANGE_FORMAT   = ASCII
  NOTE                 = "System transmission vs. wavelength."
END_OBJECT             = TEXT
END
    
The systrans directory contains the non-wavelength-integrated system 
transmission values (QE*optics*filter1*filter2) for each filter combination. 
The naming convention for these files is as follows:

<camera><filter 1><filter 2>_systrans.tab

where <camera> is "issna" or "isswa," and <filter 1> and <filter 2> represent
the filter names. For polarized filter combinations, values are given for the
parallel orientation of the filter (full transmission), with values for the 
perpendicular (blocking) orientation provided in files with subscript 
"_b_systrans.tab". 

Columns in systrans files are as follows:

 1st column: Wavelength (nm)  
 2nd column: Transmitted Flux
 3rd column: Transmitted Flux * Solar Flux (phot per cm^2-s-angstrom at 1 AU)

The solar spectrum used for this calculation is provided in solarflux.tab.

\begindata
       600.00000  2.31735e-10      12342.2
       600.10000  2.31735e-10      12323.7
       600.20000  2.31735e-10      12302.8
       600.30000  2.31735e-10      12277.3
       600.40000  2.31735e-10      12247.2
       600.50000  1.77606e-10      9363.39
       600.60000  1.77606e-10      9375.83
       600.70000  1.77606e-10      9386.48
       600.80000  1.77606e-10      9397.14
       600.90000  1.77606e-10      9404.24
       601.00000  1.77606e-10      9409.57
       601.10000  1.77606e-10      9411.35
       601.20000  1.77606e-10      9413.12
       601.30000  1.77583e-10      9411.89
       601.40000  1.77583e-10      9408.34
       601.50000  7.33848e-11      3886.46
       601.60000  7.33848e-11      3869.58
       601.70000  7.33848e-11      3855.64
       601.80000  7.33848e-11      3843.16
       601.90000  7.33848e-11      3833.62
       602.00000  7.33848e-11      3826.28
       602.10000  7.33848e-11      3820.41
       602.20000  7.33848e-11      3817.48
       602.30000  7.33848e-11      3816.74
       602.40000  7.33848e-11      3818.21
       602.50000  1.83589e-10      9559.47
       602.60000  1.83589e-10      9574.16
       602.70000  1.83589e-10      9594.35
       602.80000  1.83589e-10      9620.05
       602.90000  1.83589e-10      9651.26
       603.00000  1.83589e-10      9687.98
       603.10000  1.83589e-10      9730.21
       603.20000  1.83589e-10      9777.94
       603.30000  1.83589e-10      9831.18
       603.40000  1.83589e-10      9889.93
       603.50000  4.54786e-10      24658.5
       603.60000  4.54786e-10      24649.4
       603.70000  4.54786e-10      24640.3
       603.80000  4.54593e-10      24620.7
       603.90000  4.54593e-10      24607.1
       604.00000  4.54593e-10      24598.0
       604.10000  4.54593e-10      24584.4
       604.20000  4.54593e-10      24575.3
       604.30000  4.54593e-10      24561.6
       604.40000  4.54593e-10      24552.6
       604.50000  2.08936e-10      11278.4
       604.60000  2.08936e-10      11270.0
       604.70000  2.08936e-10      11261.6
       604.80000  2.08936e-10      11253.3
       604.90000  2.08936e-10      11244.9
       605.00000  2.08936e-10      11238.7
       605.10000  2.08936e-10      11232.4
       605.20000  2.08936e-10      11228.2
       605.30000  2.08936e-10      11222.0
       605.40000  2.08936e-10      11217.8
       605.50000  1.22644e-10      6582.32
       605.60000  1.22644e-10      6581.09
       605.70000  1.22644e-10      6578.64
       605.80000  1.22644e-10      6577.41
       605.90000  1.22644e-10      6577.41
       606.00000  1.22644e-10      6576.18
       606.10000  1.22644e-10      6576.18
       606.20000  1.22644e-10      6576.18
       606.30000  1.22648e-10      6576.36
       606.40000  1.22648e-10      6577.59
       606.50000  1.15908e-10      6217.32
       606.60000  1.15908e-10      6219.64
       606.70000  1.15908e-10      6220.80
       606.80000  1.15908e-10      6223.12
       606.90000  1.15908e-10      6223.12
       607.00000  1.15908e-10      6224.28
       607.10000  1.15908e-10      6224.28
       607.20000  1.15908e-10      6224.28
       607.30000  1.15908e-10      6223.12
       607.40000  1.15908e-10      6221.96
       607.50000  2.91260e-10      15631.9
       607.60000  2.91260e-10      15614.4
       607.70000  2.91260e-10      15599.9
       607.80000  2.91260e-10      15588.2
       607.90000  2.91260e-10      15576.6
       608.00000  2.91260e-10      15564.9
       608.10000  2.91260e-10      15556.2
       608.20000  2.91260e-10      15547.5
       608.30000  2.91260e-10      15541.6
       608.40000  2.91260e-10      15535.8
       608.50000  3.07457e-10      16396.7
       608.60000  3.07457e-10      16393.6
       608.70000  3.07457e-10      16390.5
       608.80000  3.07391e-10      16387.0
       608.90000  3.07391e-10      16390.1
       609.00000  3.07391e-10      16393.1
       609.10000  3.07391e-10      16396.2
       609.20000  3.07391e-10      16402.4
       609.30000  3.07391e-10      16408.5
       609.40000  3.07391e-10      16417.7
       609.50000  6.80578e-11      3637.69
       609.60000  6.80578e-11      3621.35
       609.70000  6.80578e-11      3607.06
       609.80000  6.80578e-11      3594.81
       609.90000  6.80578e-11      3584.60
       610.00000  6.80578e-11      3575.75
       610.10000  6.80578e-11      3568.27
       610.20000  6.80578e-11      3562.82
       610.30000  6.80578e-11      3559.42
       610.40000  6.80578e-11      3558.06
       610.50000  1.32406e-10      6920.87
       610.60000  1.32406e-10      6955.29
       610.70000  1.32406e-10      6985.75
       610.80000  1.32406e-10      7013.55
       610.90000  1.32406e-10      7037.39
       611.00000  1.32406e-10      7057.25
       611.10000  1.32406e-10      7074.46
       611.20000  1.32406e-10      7087.70
       611.30000  1.32407e-10      7098.31
       611.40000  1.32407e-10      7104.93
       611.50000  9.84988e-11      5287.42
       611.60000  9.84988e-11      5287.42
       611.70000  9.84988e-11      5284.46
       611.80000  9.84988e-11      5279.54
       611.90000  9.84988e-11      5271.66
       612.00000  9.84988e-11      5261.81
       612.10000  9.84988e-11      5249.00
       612.20000  9.84988e-11      5233.24
       612.30000  9.84988e-11      5215.51
       612.40000  9.84988e-11      5194.83
       612.50000  2.93425e-10      15407.7
       612.60000  2.93425e-10      15369.6
       612.70000  2.93425e-10      15334.4
       612.80000  2.93425e-10      15305.0
       612.90000  2.93425e-10      15281.6
       613.00000  2.93425e-10      15261.0
       613.10000  2.93425e-10      15246.4
       613.20000  2.93425e-10      15234.6
       613.30000  2.93425e-10      15228.7
       613.40000  2.93425e-10      15228.7
       613.50000  9.02219e-11      4683.42
       613.60000  9.02219e-11      4696.95
       613.70000  9.02219e-11      4708.68
       613.80000  9.01233e-11      4714.35
       613.90000  9.01233e-11      4725.17
       614.00000  9.01233e-11      4735.08
       614.10000  9.01233e-11      4743.19
       614.20000  9.01233e-11      4751.30
       614.30000  9.01233e-11      4758.51
       614.40000  9.01233e-11      4764.82
       614.50000  6.94269e-11      3674.77
       614.60000  6.94269e-11      3678.24
       614.70000  6.94269e-11      3681.02
       614.80000  6.94269e-11      3683.10
       614.90000  6.94269e-11      3684.49
       615.00000  6.94269e-11      3685.18
       615.10000  6.94269e-11      3685.88
       615.20000  6.94269e-11      3685.18
       615.30000  6.94269e-11      3684.49
       615.40000  6.94269e-11      3683.10
       615.50000  5.83608e-11      3093.71
       615.60000  5.83608e-11      3059.27
       615.70000  5.83608e-11      3027.76
       615.80000  5.83608e-11      3000.33
       615.90000  5.83608e-11      2976.98
       616.00000  5.83608e-11      2956.56
       616.10000  5.83608e-11      2940.22
       616.20000  5.83608e-11      2927.38
       616.30000  5.83691e-11      2918.45
       616.40000  5.83691e-11      2913.20
       616.50000  2.53227e-10      12628.5
       616.60000  2.53227e-10      12737.3
       616.70000  2.53227e-10      12838.6
       616.80000  2.53227e-10      12932.3
       616.90000  2.53227e-10      13021.0
       617.00000  2.53227e-10      13104.5
       617.10000  2.53227e-10      13180.5
       617.20000  2.53227e-10      13248.9
       617.30000  2.53227e-10      13312.2
       617.40000  2.53227e-10      13370.4
       617.50000  3.82426e-10      20268.6
       617.60000  3.82426e-10      20333.6
       617.70000  3.82426e-10      20391.0
       617.80000  3.82426e-10      20440.7
       617.90000  3.82426e-10      20475.1
       618.00000  3.82426e-10      20505.7
       618.10000  3.82426e-10      20524.8
       618.20000  3.82426e-10      20532.5
       618.30000  3.82426e-10      20532.5
       618.40000  3.82426e-10      20521.0
       618.50000  6.70694e-12      359.559
       618.60000  6.70694e-12      358.888
       618.70000  6.70694e-12      358.217
       618.80000  6.70019e-12      357.388
       618.90000  6.70019e-12      356.919
       619.00000  6.70019e-12      356.584
       619.10000  6.70019e-12      356.316
       619.20000  6.70019e-12      356.182
       619.30000  6.70019e-12      356.115
       619.40000  6.70019e-12      356.115
       619.50000  2.63177e-10      13993.1
       619.60000  2.63177e-10      14043.1
       619.70000  2.63177e-10      14087.9
       619.80000  2.63177e-10      14127.3
       619.90000  2.63177e-10      14161.6
       620.00000  2.63177e-10      14187.9
       620.10000  2.63177e-10      14208.9
       620.20000  2.63177e-10      14224.7
       620.30000  2.63177e-10      14235.2
       620.40000  2.63177e-10      14237.9
       620.50000  1.98903e-10      10760.6
       620.60000  1.98903e-10      10716.9
       620.70000  1.98903e-10      10675.1
       620.80000  1.98903e-10      10639.3
       620.90000  1.98903e-10      10607.5
       621.00000  1.98903e-10      10579.6
       621.10000  1.98903e-10      10555.8
       621.20000  1.98903e-10      10537.9
       621.30000  1.98648e-10      10508.5
       621.40000  1.98648e-10      10496.5
       621.50000  6.33182e-12      334.383
       621.60000  6.33182e-12      335.523
       621.70000  6.33182e-12      336.536
       621.80000  6.33182e-12      337.359
       621.90000  6.33182e-12      338.119
       622.00000  6.33182e-12      338.689
       622.10000  6.33182e-12      339.132
       622.20000  6.33182e-12      339.385
       622.30000  6.33182e-12      339.575
       622.40000  6.33182e-12      339.575
       622.50000  3.03162e-11      1625.25
       622.60000  3.03162e-11      1624.04
       622.70000  3.03162e-11      1622.22
       622.80000  3.03162e-11      1619.79
       622.90000  3.03162e-11      1616.46
       623.00000  3.03162e-11      1612.82
       623.10000  3.03162e-11      1608.27
       623.20000  3.03162e-11      1602.82
       623.30000  3.03162e-11      1597.06
       623.40000  3.03162e-11      1590.39
       623.50000  5.24667e-11      2740.34
       623.60000  5.24667e-11      2739.81
       623.70000  5.24667e-11      2739.81
       623.80000  5.23538e-11      2732.87
       623.90000  5.23538e-11      2732.34
       624.00000  5.23538e-11      2731.30
       624.10000  5.23538e-11      2729.72
       624.20000  5.23538e-11      2728.15
       624.30000  5.23538e-11      2726.58
       624.40000  5.23538e-11      2724.49
       624.50000  1.22419e-10      6365.80
       624.60000  1.22419e-10      6341.31
       624.70000  1.22419e-10      6321.72
       624.80000  1.22419e-10      6304.59
       624.90000  1.22419e-10      6291.12
       625.00000  1.22419e-10      6281.33
       625.10000  1.22419e-10      6275.21
       625.20000  1.22419e-10      6271.53
       625.30000  1.22419e-10      6272.76
       625.40000  1.22419e-10      6276.43
       625.50000  3.75698e-11      1928.46
       625.60000  3.75698e-11      1931.47
       625.70000  3.75698e-11      1935.97
       625.80000  3.75698e-11      1941.23
       625.90000  3.75698e-11      1947.62
       626.00000  3.75698e-11      1955.13
       626.10000  3.75698e-11      1963.78
       626.20000  3.75698e-11      1973.17
       626.30000  3.75106e-11      1980.93
       626.40000  3.75106e-11      1992.56
       626.50000  6.23053e-11      3330.22
       626.60000  6.23053e-11      3330.84
       626.70000  6.23053e-11      3331.46
       626.80000  6.23053e-11      3332.09
       626.90000  6.23053e-11      3332.71
       627.00000  6.23053e-11      3333.33
       627.10000  6.23053e-11      3333.96
       627.20000  6.23053e-11      3333.96
       627.30000  6.23053e-11      3334.58
       627.40000  6.23053e-11      3335.20
       627.50000  1.00568e-11      538.443
       627.60000  1.00568e-11      538.846
       627.70000  1.00568e-11      539.147
       627.80000  1.00568e-11      539.348
       627.90000  1.00568e-11      539.550
       628.00000  1.00568e-11      539.650
       628.10000  1.00568e-11      539.751
       628.20000  1.00568e-11      539.751
       628.30000  1.00568e-11      539.650
       628.40000  1.00568e-11      539.550
       628.50000  4.46317e-12      239.360
       628.60000  4.46317e-12      239.226
       628.70000  4.46317e-12      239.092
       628.80000  4.45373e-12      238.408
       628.90000  4.45373e-12      238.186
       629.00000  4.45373e-12      237.963
       629.10000  4.45373e-12      237.696
       629.20000  4.45373e-12      237.428
       629.30000  4.45373e-12      237.117
       629.40000  4.45373e-12      236.760
       629.50000  9.53578e-11      5061.59
       629.60000  9.53578e-11      5051.10
       629.70000  9.53578e-11      5040.62
       629.80000  9.53578e-11      5031.08
       629.90000  9.53578e-11      5022.50
       630.00000  9.53578e-11      5013.92
       630.10000  9.53578e-11      5005.33
       630.20000  9.53578e-11      4998.66
       630.30000  9.53578e-11      4991.03
       630.40000  9.53578e-11      4985.31
       630.50000  1.68728e-11      881.099
       630.60000  1.68728e-11      880.086
       630.70000  1.68728e-11      879.243
       630.80000  1.68728e-11      878.568
       630.90000  1.68728e-11      877.893
       631.00000  1.68728e-11      877.387
       631.10000  1.68728e-11      877.893
       631.20000  1.68728e-11      878.399
       631.30000  1.68720e-11      879.031
       631.40000  1.68720e-11      879.537
       631.50000  6.95817e-11      3629.38
       631.60000  6.95817e-11      3631.47
       631.70000  6.95817e-11      3633.55
       631.80000  6.95817e-11      3634.95
       631.90000  6.95817e-11      3637.03
       632.00000  6.95817e-11      3639.12
       632.10000  6.95817e-11      3641.21
       632.20000  6.95817e-11      3642.60
       632.30000  6.95817e-11      3644.69
       632.40000  6.95817e-11      3646.78
       632.50000  1.64022e-10      8599.69
       632.60000  1.64022e-10      8602.97
       632.70000  1.64022e-10      8607.89
       632.80000  1.64022e-10      8611.17
       632.90000  1.64022e-10      8614.45
       633.00000  1.64022e-10      8619.37
       633.10000  1.64022e-10      8622.65
       633.20000  1.64022e-10      8625.93
       633.30000  1.64022e-10      8629.21
       633.40000  1.64022e-10      8632.49
       633.50000  1.14698e-10      6038.82
       633.60000  1.14698e-10      6041.12
       633.70000  1.14698e-10      6043.41
       633.80000  1.14680e-10      6043.63
       633.90000  1.14680e-10      6045.93
       634.00000  1.14680e-10      6048.22
       634.10000  1.14680e-10      6049.37
       634.20000  1.14680e-10      6051.66
       634.30000  1.14680e-10      6052.81
       634.40000  1.14680e-10      6055.10
       634.50000  1.19746e-10      6323.79
       634.60000  1.19746e-10      6324.99
       634.70000  1.19746e-10      6327.38
       634.80000  1.19746e-10      6328.58
       634.90000  1.19746e-10      6329.78
       635.00000  1.19746e-10      6330.98
       635.10000  1.19746e-10      6332.17
       635.20000  1.19746e-10      6332.17
       635.30000  1.19746e-10      6333.37
       635.40000  1.19746e-10      6333.37
       635.50000  3.11940e-10      16501.6
       635.60000  3.11940e-10      16504.8
       635.70000  3.11940e-10      16504.8
       635.80000  3.11940e-10      16507.9
       635.90000  3.11940e-10      16507.9
       636.00000  3.11940e-10      16511.0
       636.10000  3.11940e-10      16511.0
       636.20000  3.11940e-10      16514.1
       636.30000  3.10091e-10      16416.2
       636.40000  3.10091e-10      16419.3
       636.50000  2.79306e-10      14789.3
       636.60000  2.79306e-10      14792.1
       636.70000  2.79306e-10      14792.1
       636.80000  2.79306e-10      14794.9
       636.90000  2.79306e-10      14794.9
       637.00000  2.79306e-10      14794.9
       637.10000  2.79306e-10      14797.6
       637.20000  2.79306e-10      14797.6
       637.30000  2.79306e-10      14800.4
       637.40000  2.79306e-10      14800.4
       637.50000  1.54770e-10      8201.25
       637.60000  1.54770e-10      8202.80
       637.70000  1.54770e-10      8202.80
       637.80000  1.54770e-10      8204.35
       637.90000  1.54770e-10      8204.35
       638.00000  1.54770e-10      8204.35
       638.10000  1.54770e-10      8205.90
       638.20000  1.54770e-10      8205.90
       638.30000  1.54770e-10      8205.90
       638.40000  1.54770e-10      8207.44
       638.50000  1.48016e-11      784.931
       638.60000  1.48016e-11      784.931
       638.70000  1.48016e-11      785.079
       638.80000  1.47046e-11      779.930
       638.90000  1.47046e-11      779.930
       639.00000  1.47046e-11      779.930
       639.10000  1.47046e-11      778.754
       639.20000  1.47046e-11      777.578
       639.30000  1.47046e-11      776.401
       639.40000  1.47046e-11      775.372
       639.50000  4.02732e-11      2120.39
       639.60000  4.02732e-11      2117.97
       639.70000  4.02732e-11      2115.15
       639.80000  4.02732e-11      2112.73
       639.90000  4.02732e-11      2110.72
       640.00000  4.02732e-11      2108.30
       640.10000  4.02732e-11      2106.29
       640.20000  4.02732e-11      2104.68
       640.30000  4.02732e-11      2103.07
       640.40000  4.02732e-11      2101.46
       640.50000  2.21978e-11      1157.39
       640.60000  2.21978e-11      1156.73
       640.70000  2.21978e-11      1156.06
       640.80000  2.21978e-11      1155.62
       640.90000  2.21978e-11      1154.95
       641.00000  2.21978e-11      1154.73
       641.10000  2.21978e-11      1155.17
       641.20000  2.21978e-11      1155.62
       641.30000  2.20476e-11      1148.24
       641.40000  2.20476e-11      1148.68
       641.50000  1.08008e-10      5629.40
       641.60000  1.08008e-10      5631.56
       641.70000  1.08008e-10      5633.72
       641.80000  1.08008e-10      5635.88
       641.90000  1.08008e-10      5638.04
       642.00000  1.08008e-10      5640.20
       642.10000  1.08008e-10      5641.28
       642.20000  1.08008e-10      5643.44
       642.30000  1.08008e-10      5645.60
       642.40000  1.08008e-10      5647.76
       642.50000  1.05214e-11      550.376
       642.60000  1.05214e-11      550.586
       642.70000  1.05214e-11      550.797
       642.80000  1.05214e-11      551.007
       642.90000  1.05214e-11      551.218
       643.00000  1.05214e-11      551.428
       643.10000  1.05214e-11      551.533
       643.20000  1.05214e-11      551.744
       643.30000  1.05214e-11      551.954
       643.40000  1.05214e-11      552.165
       643.50000  3.29045e-11      1727.48
       643.60000  3.29045e-11      1728.14
       643.70000  3.29045e-11      1728.47
       643.80000  3.28606e-11      1726.83
