PDS_VERSION_ID         = PDS3
RECORD_TYPE            = STREAM
OBJECT                 = TEXT
  PUBLICATION_DATE     = 2014-04-25
  INTERCHANGE_FORMAT   = ASCII
  NOTE                 = "System transmission vs. wavelength."
END_OBJECT             = TEXT
END
    
The systrans directory contains the non-wavelength-integrated system 
transmission values (QE*optics*filter1*filter2) for each filter combination. 
The naming convention for these files is as follows:

<camera><filter 1><filter 2>_systrans.tab

where <camera> is "issna" or "isswa," and <filter 1> and <filter 2> represent
the filter names. For polarized filter combinations, values are given for the
parallel orientation of the filter (full transmission), with values for the 
perpendicular (blocking) orientation provided in files with subscript 
"_b_systrans.tab". 

Columns in systrans files are as follows:

 1st column: Wavelength (nm)  
 2nd column: Transmitted Flux
 3rd column: Transmitted Flux * Solar Flux (phot per cm^2-s-angstrom at 1 AU)

The solar spectrum used for this calculation is provided in solarflux.tab.

\begindata
       600.00000  4.57549e-10      24369.1
       600.10000  4.57549e-10      24332.4
       600.20000  4.57549e-10      24291.3
       600.30000  4.57549e-10      24240.9
       600.40000  4.57549e-10      24181.5
       600.50000  6.55190e-10      34541.6
       600.60000  6.55190e-10      34587.5
       600.70000  6.55190e-10      34626.8
       600.80000  6.55190e-10      34666.1
       600.90000  6.55190e-10      34692.3
       601.00000  6.55190e-10      34712.0
       601.10000  6.55190e-10      34718.5
       601.20000  6.55190e-10      34725.1
       601.30000  6.55105e-10      34720.5
       601.40000  6.55105e-10      34707.4
       601.50000  5.41914e-10      28699.8
       601.60000  5.41914e-10      28575.1
       601.70000  5.41914e-10      28472.2
       601.80000  5.41914e-10      28380.0
       601.90000  5.41914e-10      28309.6
       602.00000  5.41914e-10      28255.4
       602.10000  5.41914e-10      28212.0
       602.20000  5.41914e-10      28190.4
       602.30000  5.41914e-10      28185.0
       602.40000  5.41914e-10      28195.8
       602.50000  5.57303e-10      29018.7
       602.60000  5.57303e-10      29063.3
       602.70000  5.57303e-10      29124.6
       602.80000  5.57303e-10      29202.7
       602.90000  5.57303e-10      29297.4
       603.00000  5.57303e-10      29408.9
       603.10000  5.57303e-10      29537.0
       603.20000  5.57303e-10      29681.9
       603.30000  5.57303e-10      29843.6
       603.40000  5.57303e-10      30021.9
       603.50000  6.65313e-10      36073.3
       603.60000  6.65313e-10      36060.0
       603.70000  6.65313e-10      36046.7
       603.80000  6.65030e-10      36018.0
       603.90000  6.65030e-10      35998.1
       604.00000  6.65030e-10      35984.8
       604.10000  6.65030e-10      35964.8
       604.20000  6.65030e-10      35951.5
       604.30000  6.65030e-10      35931.6
       604.40000  6.65030e-10      35918.3
       604.50000  3.23155e-10      17443.9
       604.60000  3.23155e-10      17431.0
       604.70000  3.23155e-10      17418.0
       604.80000  3.23155e-10      17405.1
       604.90000  3.23155e-10      17392.2
       605.00000  3.23155e-10      17382.5
       605.10000  3.23155e-10      17372.8
       605.20000  3.23155e-10      17366.3
       605.30000  3.23155e-10      17356.6
       605.40000  3.23155e-10      17350.2
       605.50000  1.85310e-10      9945.56
       605.60000  1.85310e-10      9943.71
       605.70000  1.85310e-10      9940.00
       605.80000  1.85310e-10      9938.15
       605.90000  1.85310e-10      9938.15
       606.00000  1.85310e-10      9936.30
       606.10000  1.85310e-10      9936.30
       606.20000  1.85310e-10      9936.30
       606.30000  1.85315e-10      9936.57
       606.40000  1.85315e-10      9938.42
       606.50000  5.68313e-10      30484.3
       606.60000  5.68313e-10      30495.7
       606.70000  5.68313e-10      30501.4
       606.80000  5.68313e-10      30512.7
       606.90000  5.68313e-10      30512.7
       607.00000  5.68313e-10      30518.4
       607.10000  5.68313e-10      30518.4
       607.20000  5.68313e-10      30518.4
       607.30000  5.68313e-10      30512.7
       607.40000  5.68313e-10      30507.0
       607.50000  3.39193e-10      18204.5
       607.60000  3.39193e-10      18184.1
       607.70000  3.39193e-10      18167.2
       607.80000  3.39193e-10      18153.6
       607.90000  3.39193e-10      18140.0
       608.00000  3.39193e-10      18126.5
       608.10000  3.39193e-10      18116.3
       608.20000  3.39193e-10      18106.1
       608.30000  3.39193e-10      18099.3
       608.40000  3.39193e-10      18092.6
       608.50000  3.02348e-10      16124.2
       608.60000  3.02348e-10      16121.2
       608.70000  3.02348e-10      16118.1
       608.80000  3.02282e-10      16114.7
       608.90000  3.02282e-10      16117.7
       609.00000  3.02282e-10      16120.7
       609.10000  3.02282e-10      16123.7
       609.20000  3.02282e-10      16129.8
       609.30000  3.02282e-10      16135.8
       609.40000  3.02282e-10      16144.9
       609.50000  3.73836e-10      19981.5
       609.60000  3.73836e-10      19891.8
       609.70000  3.73836e-10      19813.3
       609.80000  3.73836e-10      19746.0
       609.90000  3.73836e-10      19689.9
       610.00000  3.73836e-10      19641.3
       610.10000  3.73836e-10      19600.2
       610.20000  3.73836e-10      19570.3
       610.30000  3.73836e-10      19551.6
       610.40000  3.73836e-10      19544.1
       610.50000  2.84552e-10      14873.6
       610.60000  2.84552e-10      14947.5
       610.70000  2.84552e-10      15013.0
       610.80000  2.84552e-10      15072.7
       610.90000  2.84552e-10      15124.0
       611.00000  2.84552e-10      15166.6
       611.10000  2.84552e-10      15203.6
       611.20000  2.84552e-10      15232.1
       611.30000  2.84553e-10      15254.9
       611.40000  2.84553e-10      15269.1
       611.50000  4.26328e-10      22885.3
       611.60000  4.26328e-10      22885.3
       611.70000  4.26328e-10      22872.5
       611.80000  4.26328e-10      22851.2
       611.90000  4.26328e-10      22817.1
       612.00000  4.26328e-10      22774.4
       612.10000  4.26328e-10      22719.0
       612.20000  4.26328e-10      22650.8
       612.30000  4.26328e-10      22574.1
       612.40000  4.26328e-10      22484.5
       612.50000  4.25148e-10      22324.5
       612.60000  4.25148e-10      22269.2
       612.70000  4.25148e-10      22218.2
       612.80000  4.25148e-10      22175.7
       612.90000  4.25148e-10      22141.7
       613.00000  4.25148e-10      22111.9
       613.10000  4.25148e-10      22090.7
       613.20000  4.25148e-10      22073.7
       613.30000  4.25148e-10      22065.2
       613.40000  4.25148e-10      22065.2
       613.50000  9.12705e-11      4737.85
       613.60000  9.12705e-11      4751.54
       613.70000  9.12705e-11      4763.41
       613.80000  9.11708e-11      4769.15
       613.90000  9.11708e-11      4780.09
       614.00000  9.11708e-11      4790.12
       614.10000  9.11708e-11      4798.32
       614.20000  9.11708e-11      4806.53
       614.30000  9.11708e-11      4813.82
       614.40000  9.11708e-11      4820.20
       614.50000  3.27718e-10      17346.1
       614.60000  3.27718e-10      17362.5
       614.70000  3.27718e-10      17375.6
       614.80000  3.27718e-10      17385.5
       614.90000  3.27718e-10      17392.0
       615.00000  3.27718e-10      17395.3
       615.10000  3.27718e-10      17398.6
       615.20000  3.27718e-10      17395.3
       615.30000  3.27718e-10      17392.0
       615.40000  3.27718e-10      17385.5
       615.50000  2.50872e-10      13298.7
       615.60000  2.50872e-10      13150.7
       615.70000  2.50872e-10      13015.2
       615.80000  2.50872e-10      12897.3
       615.90000  2.50872e-10      12797.0
       616.00000  2.50872e-10      12709.2
       616.10000  2.50872e-10      12638.9
       616.20000  2.50872e-10      12583.7
       616.30000  2.50907e-10      12545.4
       616.40000  2.50907e-10      12522.8
       616.50000  5.56567e-11      2775.60
       616.60000  5.56567e-11      2799.53
       616.70000  5.56567e-11      2821.80
       616.80000  5.56567e-11      2842.39
       616.90000  5.56567e-11      2861.87
       617.00000  5.56567e-11      2880.24
       617.10000  5.56567e-11      2896.93
       617.20000  5.56567e-11      2911.96
       617.30000  5.56567e-11      2925.87
       617.40000  5.56567e-11      2938.68
       617.50000  3.83495e-10      20325.2
       617.60000  3.83495e-10      20390.4
       617.70000  3.83495e-10      20448.0
       617.80000  3.83495e-10      20497.8
       617.90000  3.83495e-10      20532.3
       618.00000  3.83495e-10      20563.0
       618.10000  3.83495e-10      20582.2
       618.20000  3.83495e-10      20589.8
       618.30000  3.83495e-10      20589.8
       618.40000  3.83495e-10      20578.3
       618.50000  1.42464e-10      7637.48
       618.60000  1.42464e-10      7623.24
       618.70000  1.42464e-10      7608.99
       618.80000  1.42320e-10      7591.37
       618.90000  1.42320e-10      7581.41
       619.00000  1.42320e-10      7574.29
       619.10000  1.42320e-10      7568.60
       619.20000  1.42320e-10      7565.75
       619.30000  1.42320e-10      7564.33
       619.40000  1.42320e-10      7564.33
       619.50000  4.51612e-11      2401.22
       619.60000  4.51612e-11      2409.80
       619.70000  4.51612e-11      2417.48
       619.80000  4.51612e-11      2424.25
       619.90000  4.51612e-11      2430.12
       620.00000  4.51612e-11      2434.64
       620.10000  4.51612e-11      2438.25
       620.20000  4.51612e-11      2440.96
       620.30000  4.51612e-11      2442.77
       620.40000  4.51612e-11      2443.22
       620.50000  3.75575e-10      20318.6
       620.60000  3.75575e-10      20236.0
       620.70000  3.75575e-10      20157.1
       620.80000  3.75575e-10      20089.5
       620.90000  3.75575e-10      20029.4
       621.00000  3.75575e-10      19976.8
       621.10000  3.75575e-10      19931.7
       621.20000  3.75575e-10      19897.9
       621.30000  3.75093e-10      19842.4
       621.40000  3.75093e-10      19819.9
       621.50000  3.71603e-10      19624.3
       621.60000  3.71603e-10      19691.2
       621.70000  3.71603e-10      19750.7
       621.80000  3.71603e-10      19799.0
       621.90000  3.71603e-10      19843.6
       622.00000  3.71603e-10      19877.0
       622.10000  3.71603e-10      19903.0
       622.20000  3.71603e-10      19917.9
       622.30000  3.71603e-10      19929.0
       622.40000  3.71603e-10      19929.0
       622.50000  3.06772e-11      1644.61
       622.60000  3.06772e-11      1643.38
       622.70000  3.06772e-11      1641.54
       622.80000  3.06772e-11      1639.09
       622.90000  3.06772e-11      1635.71
       623.00000  3.06772e-11      1632.03
       623.10000  3.06772e-11      1627.43
       623.20000  3.06772e-11      1621.91
       623.30000  3.06772e-11      1616.08
       623.40000  3.06772e-11      1609.33
       623.50000  3.42129e-10      17869.4
       623.60000  3.42129e-10      17866.0
       623.70000  3.42129e-10      17866.0
       623.80000  3.41392e-10      17820.7
       623.90000  3.41392e-10      17817.3
       624.00000  3.41392e-10      17810.4
       624.10000  3.41392e-10      17800.2
       624.20000  3.41392e-10      17790.0
       624.30000  3.41392e-10      17779.7
       624.40000  3.41392e-10      17766.1
       624.50000  3.60327e-10      18737.0
       624.60000  3.60327e-10      18664.9
       624.70000  3.60327e-10      18607.3
       624.80000  3.60327e-10      18556.8
       624.90000  3.60327e-10      18517.2
       625.00000  3.60327e-10      18488.4
       625.10000  3.60327e-10      18470.3
       625.20000  3.60327e-10      18459.5
       625.30000  3.60327e-10      18463.1
       625.40000  3.60327e-10      18473.9
       625.50000  2.44393e-10      12544.7
       625.60000  2.44393e-10      12564.3
       625.70000  2.44393e-10      12593.6
       625.80000  2.44393e-10      12627.8
       625.90000  2.44393e-10      12669.3
       626.00000  2.44393e-10      12718.2
       626.10000  2.44393e-10      12774.4
       626.20000  2.44393e-10      12835.5
       626.30000  2.44008e-10      12886.0
       626.40000  2.44008e-10      12961.7
       626.50000  2.25941e-10      12076.6
       626.60000  2.25941e-10      12078.8
       626.70000  2.25941e-10      12081.1
       626.80000  2.25941e-10      12083.3
       626.90000  2.25941e-10      12085.6
       627.00000  2.25941e-10      12087.9
       627.10000  2.25941e-10      12090.1
       627.20000  2.25941e-10      12090.1
       627.30000  2.25941e-10      12092.4
       627.40000  2.25941e-10      12094.6
       627.50000  1.96809e-10      10537.1
       627.60000  1.96809e-10      10545.0
       627.70000  1.96809e-10      10550.9
       627.80000  1.96809e-10      10554.8
       627.90000  1.96809e-10      10558.8
       628.00000  1.96809e-10      10560.7
       628.10000  1.96809e-10      10562.7
       628.20000  1.96809e-10      10562.7
       628.30000  1.96809e-10      10560.7
       628.40000  1.96809e-10      10558.8
       628.50000  2.98154e-10      15990.0
       628.60000  2.98154e-10      15981.1
       628.70000  2.98154e-10      15972.1
       628.80000  2.97524e-10      15926.5
       628.90000  2.97524e-10      15911.6
       629.00000  2.97524e-10      15896.7
       629.10000  2.97524e-10      15878.9
       629.20000  2.97524e-10      15861.0
       629.30000  2.97524e-10      15840.2
       629.40000  2.97524e-10      15816.4
       629.50000  2.54375e-10      13502.2
       629.60000  2.54375e-10      13474.3
       629.70000  2.54375e-10      13446.3
       629.80000  2.54375e-10      13420.8
       629.90000  2.54375e-10      13397.9
       630.00000  2.54375e-10      13375.1
       630.10000  2.54375e-10      13352.2
       630.20000  2.54375e-10      13334.4
       630.30000  2.54375e-10      13314.0
       630.40000  2.54375e-10      13298.7
       630.50000  7.68397e-11      4012.57
       630.60000  7.68397e-11      4007.96
       630.70000  7.68397e-11      4004.11
       630.80000  7.68397e-11      4001.04
       630.90000  7.68397e-11      3997.97
       631.00000  7.68397e-11      3995.66
       631.10000  7.68397e-11      3997.97
       631.20000  7.68397e-11      4000.27
       631.30000  7.68359e-11      4003.15
       631.40000  7.68359e-11      4005.46
       631.50000  1.61550e-10      8426.46
       631.60000  1.61550e-10      8431.31
       631.70000  1.61550e-10      8436.15
       631.80000  1.61550e-10      8439.39
       631.90000  1.61550e-10      8444.23
       632.00000  1.61550e-10      8449.08
       632.10000  1.61550e-10      8453.92
       632.20000  1.61550e-10      8457.16
       632.30000  1.61550e-10      8462.00
       632.40000  1.61550e-10      8466.85
       632.50000  1.17418e-10      6156.22
       632.60000  1.17418e-10      6158.57
       632.70000  1.17418e-10      6162.10
       632.80000  1.17418e-10      6164.44
       632.90000  1.17418e-10      6166.79
       633.00000  1.17418e-10      6170.31
       633.10000  1.17418e-10      6172.66
       633.20000  1.17418e-10      6175.01
       633.30000  1.17418e-10      6177.36
       633.40000  1.17418e-10      6179.71
       633.50000  3.36918e-11      1773.87
       633.60000  3.36918e-11      1774.55
       633.70000  3.36918e-11      1775.22
       633.80000  3.36866e-11      1775.28
       633.90000  3.36866e-11      1775.96
       634.00000  3.36866e-11      1776.63
       634.10000  3.36866e-11      1776.97
       634.20000  3.36866e-11      1777.64
       634.30000  3.36866e-11      1777.98
       634.40000  3.36866e-11      1778.65
       634.50000  1.71061e-10      9033.73
       634.60000  1.71061e-10      9035.44
       634.70000  1.71061e-10      9038.86
       634.80000  1.71061e-10      9040.57
       634.90000  1.71061e-10      9042.28
       635.00000  1.71061e-10      9043.99
       635.10000  1.71061e-10      9045.70
       635.20000  1.71061e-10      9045.70
       635.30000  1.71061e-10      9047.41
       635.40000  1.71061e-10      9047.41
       635.50000  2.91139e-10      15401.3
       635.60000  2.91139e-10      15404.2
       635.70000  2.91139e-10      15404.2
       635.80000  2.91139e-10      15407.1
       635.90000  2.91139e-10      15407.1
       636.00000  2.91139e-10      15410.0
       636.10000  2.91139e-10      15410.0
       636.20000  2.91139e-10      15412.9
       636.30000  2.89414e-10      15321.6
       636.40000  2.89414e-10      15324.5
       636.50000  1.66916e-10      8838.19
       636.60000  1.66916e-10      8839.86
       636.70000  1.66916e-10      8839.86
       636.80000  1.66916e-10      8841.53
       636.90000  1.66916e-10      8841.53
       637.00000  1.66916e-10      8841.53
       637.10000  1.66916e-10      8843.20
       637.20000  1.66916e-10      8843.20
       637.30000  1.66916e-10      8844.87
       637.40000  1.66916e-10      8844.87
       637.50000  2.16849e-10      11490.8
       637.60000  2.16849e-10      11493.0
       637.70000  2.16849e-10      11493.0
       637.80000  2.16849e-10      11495.2
       637.90000  2.16849e-10      11495.2
       638.00000  2.16849e-10      11495.2
       638.10000  2.16849e-10      11497.3
       638.20000  2.16849e-10      11497.3
       638.30000  2.16849e-10      11497.3
       638.40000  2.16849e-10      11499.5
       638.50000  1.16834e-10      6195.70
       638.60000  1.16834e-10      6195.70
       638.70000  1.16834e-10      6196.87
       638.80000  1.16068e-10      6156.23
       638.90000  1.16068e-10      6156.23
       639.00000  1.16068e-10      6156.23
       639.10000  1.16068e-10      6146.95
       639.20000  1.16068e-10      6137.66
       639.30000  1.16068e-10      6128.37
       639.40000  1.16068e-10      6120.25
       639.50000  1.65940e-10      8736.75
       639.60000  1.65940e-10      8726.80
       639.70000  1.65940e-10      8715.18
       639.80000  1.65940e-10      8705.22
       639.90000  1.65940e-10      8696.93
       640.00000  1.65940e-10      8686.97
       640.10000  1.65940e-10      8678.67
       640.20000  1.65940e-10      8672.04
       640.30000  1.65940e-10      8665.40
       640.40000  1.65940e-10      8658.76
       640.50000  1.71314e-10      8932.30
       640.60000  1.71314e-10      8927.16
       640.70000  1.71314e-10      8922.02
       640.80000  1.71314e-10      8918.60
       640.90000  1.71314e-10      8913.46
       641.00000  1.71314e-10      8911.75
       641.10000  1.71314e-10      8915.17
       641.20000  1.71314e-10      8918.60
       641.30000  1.70155e-10      8861.67
       641.40000  1.70155e-10      8865.08
       641.50000  9.83741e-11      5127.26
       641.60000  9.83741e-11      5129.23
       641.70000  9.83741e-11      5131.20
       641.80000  9.83741e-11      5133.16
       641.90000  9.83741e-11      5135.13
       642.00000  9.83741e-11      5137.10
       642.10000  9.83741e-11      5138.08
       642.20000  9.83741e-11      5140.05
       642.30000  9.83741e-11      5142.02
       642.40000  9.83741e-11      5143.98
       642.50000  1.09150e-10      5709.66
       642.60000  1.09150e-10      5711.85
       642.70000  1.09150e-10      5714.03
       642.80000  1.09150e-10      5716.21
       642.90000  1.09150e-10      5718.39
       643.00000  1.09150e-10      5720.58
       643.10000  1.09150e-10      5721.67
       643.20000  1.09150e-10      5723.85
       643.30000  1.09150e-10      5726.04
       643.40000  1.09150e-10      5728.22
       643.50000  1.25489e-10      6588.18
       643.60000  1.25489e-10      6590.69
       643.70000  1.25489e-10      6591.95
       643.80000  1.25322e-10      6585.67
