PDS_VERSION_ID         = PDS3
RECORD_TYPE            = STREAM
OBJECT                 = TEXT
  PUBLICATION_DATE     = 2014-04-25
  INTERCHANGE_FORMAT   = ASCII
  NOTE                 = "System transmission vs. wavelength."
END_OBJECT             = TEXT
END
    
The systrans directory contains the non-wavelength-integrated system 
transmission values (QE*optics*filter1*filter2) for each filter combination. 
The naming convention for these files is as follows:

<camera><filter 1><filter 2>_systrans.tab

where <camera> is "issna" or "isswa," and <filter 1> and <filter 2> represent
the filter names. For polarized filter combinations, values are given for the
parallel orientation of the filter (full transmission), with values for the 
perpendicular (blocking) orientation provided in files with subscript 
"_b_systrans.tab". 

Columns in systrans files are as follows:

 1st column: Wavelength (nm)  
 2nd column: Transmitted Flux
 3rd column: Transmitted Flux * Solar Flux (phot per cm^2-s-angstrom at 1 AU)

The solar spectrum used for this calculation is provided in solarflux.tab.

\begindata
       600.00000  1.99055e-10      10601.7
       600.10000  1.99055e-10      10585.7
       600.20000  1.99055e-10      10567.8
       600.30000  1.99055e-10      10545.9
       600.40000  1.99055e-10      10520.1
       600.50000  4.29137e-10      22624.1
       600.60000  4.29137e-10      22654.2
       600.70000  4.29137e-10      22679.9
       600.80000  4.29137e-10      22705.7
       600.90000  4.29137e-10      22722.8
       601.00000  4.29137e-10      22735.7
       601.10000  4.29137e-10      22740.0
       601.20000  4.29137e-10      22744.3
       601.30000  4.29081e-10      22741.3
       601.40000  4.29081e-10      22732.7
       601.50000  8.19807e-10      43417.0
       601.60000  8.19807e-10      43228.4
       601.70000  8.19807e-10      43072.7
       601.80000  8.19807e-10      42933.3
       601.90000  8.19807e-10      42826.7
       602.00000  8.19807e-10      42744.8
       602.10000  8.19807e-10      42679.2
       602.20000  8.19807e-10      42646.4
       602.30000  8.19807e-10      42638.2
       602.40000  8.19807e-10      42654.6
       602.50000  1.02233e-10      5323.27
       602.60000  1.02233e-10      5331.45
       602.70000  1.02233e-10      5342.70
       602.80000  1.02233e-10      5357.01
       602.90000  1.02233e-10      5374.39
       603.00000  1.02233e-10      5394.84
       603.10000  1.02233e-10      5418.35
       603.20000  1.02233e-10      5444.93
       603.30000  1.02233e-10      5474.58
       603.40000  1.02233e-10      5507.29
       603.50000  4.36250e-10      23653.5
       603.60000  4.36250e-10      23644.8
       603.70000  4.36250e-10      23636.0
       603.80000  4.36065e-10      23617.3
       603.90000  4.36065e-10      23604.2
       604.00000  4.36065e-10      23595.5
       604.10000  4.36065e-10      23582.4
       604.20000  4.36065e-10      23573.7
       604.30000  4.36065e-10      23560.6
       604.40000  4.36065e-10      23551.9
       604.50000  1.09694e-10      5921.29
       604.60000  1.09694e-10      5916.91
       604.70000  1.09694e-10      5912.52
       604.80000  1.09694e-10      5908.13
       604.90000  1.09694e-10      5903.74
       605.00000  1.09694e-10      5900.45
       605.10000  1.09694e-10      5897.16
       605.20000  1.09694e-10      5894.97
       605.30000  1.09694e-10      5891.68
       605.40000  1.09694e-10      5889.48
       605.50000  3.78124e-11      2029.39
       605.60000  3.78124e-11      2029.01
       605.70000  3.78124e-11      2028.26
       605.80000  3.78124e-11      2027.88
       605.90000  3.78124e-11      2027.88
       606.00000  3.78124e-11      2027.50
       606.10000  3.78124e-11      2027.50
       606.20000  3.78124e-11      2027.50
       606.30000  3.78135e-11      2027.56
       606.40000  3.78135e-11      2027.94
       606.50000  2.68064e-11      1437.90
       606.60000  2.68064e-11      1438.43
       606.70000  2.68064e-11      1438.70
       606.80000  2.68064e-11      1439.24
       606.90000  2.68064e-11      1439.24
       607.00000  2.68064e-11      1439.50
       607.10000  2.68064e-11      1439.50
       607.20000  2.68064e-11      1439.50
       607.30000  2.68064e-11      1439.24
       607.40000  2.68064e-11      1438.97
       607.50000  2.65134e-10      14229.7
       607.60000  2.65134e-10      14213.8
       607.70000  2.65134e-10      14200.6
       607.80000  2.65134e-10      14190.0
       607.90000  2.65134e-10      14179.3
       608.00000  2.65134e-10      14168.7
       608.10000  2.65134e-10      14160.8
       608.20000  2.65134e-10      14152.8
       608.30000  2.65134e-10      14147.5
       608.40000  2.65134e-10      14142.2
       608.50000  4.36388e-10      23272.6
       608.60000  4.36388e-10      23268.2
       608.70000  4.36388e-10      23263.9
       608.80000  4.36294e-10      23258.9
       608.90000  4.36294e-10      23263.2
       609.00000  4.36294e-10      23267.6
       609.10000  4.36294e-10      23271.9
       609.20000  4.36294e-10      23280.7
       609.30000  4.36294e-10      23289.4
       609.40000  4.36294e-10      23302.5
       609.50000  3.57905e-10      19130.0
       609.60000  3.57905e-10      19044.1
       609.70000  3.57905e-10      18968.9
       609.80000  3.57905e-10      18904.5
       609.90000  3.57905e-10      18850.8
       610.00000  3.57905e-10      18804.3
       610.10000  3.57905e-10      18764.9
       610.20000  3.57905e-10      18736.3
       610.30000  3.57905e-10      18718.4
       610.40000  3.57905e-10      18711.3
       610.50000  1.24322e-10      6498.29
       610.60000  1.24322e-10      6530.61
       610.70000  1.24322e-10      6559.21
       610.80000  1.24322e-10      6585.31
       610.90000  1.24322e-10      6607.69
       611.00000  1.24322e-10      6626.34
       611.10000  1.24322e-10      6642.50
       611.20000  1.24322e-10      6654.93
       611.30000  1.24322e-10      6664.90
       611.40000  1.24322e-10      6671.11
       611.50000  1.06887e-10      5737.68
       611.60000  1.06887e-10      5737.68
       611.70000  1.06887e-10      5734.47
       611.80000  1.06887e-10      5729.13
       611.90000  1.06887e-10      5720.58
       612.00000  1.06887e-10      5709.89
       612.10000  1.06887e-10      5695.99
       612.20000  1.06887e-10      5678.89
       612.30000  1.06887e-10      5659.65
       612.40000  1.06887e-10      5637.21
       612.50000  2.38319e-10      12514.1
       612.60000  2.38319e-10      12483.1
       612.70000  2.38319e-10      12454.5
       612.80000  2.38319e-10      12430.7
       612.90000  2.38319e-10      12411.6
       613.00000  2.38319e-10      12394.9
       613.10000  2.38319e-10      12383.0
       613.20000  2.38319e-10      12373.5
       613.30000  2.38319e-10      12368.7
       613.40000  2.38319e-10      12368.7
       613.50000  3.91624e-10      20329.2
       613.60000  3.91624e-10      20387.9
       613.70000  3.91624e-10      20438.9
       613.80000  3.91196e-10      20463.5
       613.90000  3.91196e-10      20510.4
       614.00000  3.91196e-10      20553.5
       614.10000  3.91196e-10      20588.7
       614.20000  3.91196e-10      20623.9
       614.30000  3.91196e-10      20655.2
       614.40000  3.91196e-10      20682.5
       614.50000  7.72618e-12      408.947
       614.60000  7.72618e-12      409.333
       614.70000  7.72618e-12      409.642
       614.80000  7.72618e-12      409.874
       614.90000  7.72618e-12      410.029
       615.00000  7.72618e-12      410.106
       615.10000  7.72618e-12      410.183
       615.20000  7.72618e-12      410.106
       615.30000  7.72618e-12      410.029
       615.40000  7.72618e-12      409.874
       615.50000  1.46167e-11      774.833
       615.60000  1.46167e-11      766.209
       615.70000  1.46167e-11      758.316
       615.80000  1.46167e-11      751.446
       615.90000  1.46167e-11      745.599
       616.00000  1.46167e-11      740.484
       616.10000  1.46167e-11      736.391
       616.20000  1.46167e-11      733.175
       616.30000  1.46188e-11      730.940
       616.40000  1.46188e-11      729.625
       616.50000  1.49255e-11      744.336
       616.60000  1.49255e-11      750.754
       616.70000  1.49255e-11      756.724
       616.80000  1.49255e-11      762.246
       616.90000  1.49255e-11      767.470
       617.00000  1.49255e-11      772.396
       617.10000  1.49255e-11      776.873
       617.20000  1.49255e-11      780.903
       617.30000  1.49255e-11      784.635
       617.40000  1.49255e-11      788.068
       617.50000  1.41934e-11      752.250
       617.60000  1.41934e-11      754.662
       617.70000  1.41934e-11      756.791
       617.80000  1.41934e-11      758.637
       617.90000  1.41934e-11      759.914
       618.00000  1.41934e-11      761.049
       618.10000  1.41934e-11      761.759
       618.20000  1.41934e-11      762.043
       618.30000  1.41934e-11      762.043
       618.40000  1.41934e-11      761.617
       618.50000  1.26279e-15    0.0676984
       618.60000  1.26279e-15    0.0675721
       618.70000  1.26279e-15    0.0674458
       618.80000  1.26152e-15    0.0672897
       618.90000  1.26152e-15    0.0672014
       619.00000  1.26152e-15    0.0671383
       619.10000  1.26152e-15    0.0670878
       619.20000  1.26152e-15    0.0670626
       619.30000  1.26152e-15    0.0670500
       619.40000  1.26152e-15    0.0670500
       619.50000  4.05769e-11      2157.48
       619.60000  4.05769e-11      2165.19
       619.70000  4.05769e-11      2172.08
       619.80000  4.05769e-11      2178.17
       619.90000  4.05769e-11      2183.45
       620.00000  4.05769e-11      2187.50
       620.10000  4.05769e-11      2190.75
       620.20000  4.05769e-11      2193.18
       620.30000  4.05769e-11      2194.81
       620.40000  4.05769e-11      2195.21
       620.50000  1.26248e-10      6830.01
       620.60000  1.26248e-10      6802.24
       620.70000  1.26248e-10      6775.73
       620.80000  1.26248e-10      6753.00
       620.90000  1.26248e-10      6732.80
       621.00000  1.26248e-10      6715.13
       621.10000  1.26248e-10      6699.98
       621.20000  1.26248e-10      6688.61
       621.30000  1.26086e-10      6669.95
       621.40000  1.26086e-10      6662.38
       621.50000  3.80802e-11      2011.01
       621.60000  3.80802e-11      2017.87
       621.70000  3.80802e-11      2023.96
       621.80000  3.80802e-11      2028.91
       621.90000  3.80802e-11      2033.48
       622.00000  3.80802e-11      2036.91
       622.10000  3.80802e-11      2039.57
       622.20000  3.80802e-11      2041.10
       622.30000  3.80802e-11      2042.24
       622.40000  3.80802e-11      2042.24
       622.50000  1.45863e-10      7819.70
       622.60000  1.45863e-10      7813.86
       622.70000  1.45863e-10      7805.11
       622.80000  1.45863e-10      7793.44
       622.90000  1.45863e-10      7777.40
       623.00000  1.45863e-10      7759.89
       623.10000  1.45863e-10      7738.01
       623.20000  1.45863e-10      7711.76
       623.30000  1.45863e-10      7684.05
       623.40000  1.45863e-10      7651.96
       623.50000  4.09065e-11      2136.55
       623.60000  4.09065e-11      2136.14
       623.70000  4.09065e-11      2136.14
       623.80000  4.08185e-11      2130.72
       623.90000  4.08185e-11      2130.32
       624.00000  4.08185e-11      2129.50
       624.10000  4.08185e-11      2128.28
       624.20000  4.08185e-11      2127.05
       624.30000  4.08185e-11      2125.83
       624.40000  4.08185e-11      2124.19
       624.50000  2.78957e-11      1450.58
       624.60000  2.78957e-11      1445.00
       624.70000  2.78957e-11      1440.54
       624.80000  2.78957e-11      1436.63
       624.90000  2.78957e-11      1433.56
       625.00000  2.78957e-11      1431.33
       625.10000  2.78957e-11      1429.93
       625.20000  2.78957e-11      1429.10
       625.30000  2.78957e-11      1429.38
       625.40000  2.78957e-11      1430.21
       625.50000  6.99602e-11      3591.06
       625.60000  6.99602e-11      3596.66
       625.70000  6.99602e-11      3605.05
       625.80000  6.99602e-11      3614.85
       625.90000  6.99602e-11      3626.74
       626.00000  6.99602e-11      3640.73
       626.10000  6.99602e-11      3656.82
       626.20000  6.99602e-11      3674.31
       626.30000  6.98499e-11      3688.77
       626.40000  6.98499e-11      3710.43
       626.50000  6.24808e-11      3339.60
       626.60000  6.24808e-11      3340.22
       626.70000  6.24808e-11      3340.85
       626.80000  6.24808e-11      3341.47
       626.90000  6.24808e-11      3342.10
       627.00000  6.24808e-11      3342.72
       627.10000  6.24808e-11      3343.35
       627.20000  6.24808e-11      3343.35
       627.30000  6.24808e-11      3343.97
       627.40000  6.24808e-11      3344.60
       627.50000  2.36989e-10      12688.4
       627.60000  2.36989e-10      12697.9
       627.70000  2.36989e-10      12705.0
       627.80000  2.36989e-10      12709.7
       627.90000  2.36989e-10      12714.5
       628.00000  2.36989e-10      12716.8
       628.10000  2.36989e-10      12719.2
       628.20000  2.36989e-10      12719.2
       628.30000  2.36989e-10      12716.8
       628.40000  2.36989e-10      12714.5
       628.50000  2.68541e-11      1440.19
       628.60000  2.68541e-11      1439.38
       628.70000  2.68541e-11      1438.58
       628.80000  2.67974e-11      1434.46
       628.90000  2.67974e-11      1433.12
       629.00000  2.67974e-11      1431.78
       629.10000  2.67974e-11      1430.18
       629.20000  2.67974e-11      1428.57
       629.30000  2.67974e-11      1426.69
       629.40000  2.67974e-11      1424.55
       629.50000  3.91097e-11      2075.94
       629.60000  3.91097e-11      2071.64
       629.70000  3.91097e-11      2067.34
       629.80000  3.91097e-11      2063.43
       629.90000  3.91097e-11      2059.91
       630.00000  3.91097e-11      2056.39
       630.10000  3.91097e-11      2052.87
       630.20000  3.91097e-11      2050.13
       630.30000  3.91097e-11      2047.00
       630.40000  3.91097e-11      2044.66
       630.50000  1.73419e-10      9055.95
       630.60000  1.73419e-10      9045.54
       630.70000  1.73419e-10      9036.87
       630.80000  1.73419e-10      9029.93
       630.90000  1.73419e-10      9023.00
       631.00000  1.73419e-10      9017.79
       631.10000  1.73419e-10      9023.00
       631.20000  1.73419e-10      9028.20
       631.30000  1.73411e-10      9034.70
       631.40000  1.73411e-10      9039.90
       631.50000  4.92525e-11      2569.01
       631.60000  4.92525e-11      2570.49
       631.70000  4.92525e-11      2571.97
       631.80000  4.92525e-11      2572.95
       631.90000  4.92525e-11      2574.43
       632.00000  4.92525e-11      2575.91
       632.10000  4.92525e-11      2577.38
       632.20000  4.92525e-11      2578.37
       632.30000  4.92525e-11      2579.85
       632.40000  4.92525e-11      2581.32
       632.50000  8.82823e-11      4628.64
       632.60000  8.82823e-11      4630.40
       632.70000  8.82823e-11      4633.05
       632.80000  8.82823e-11      4634.82
       632.90000  8.82823e-11      4636.58
       633.00000  8.82823e-11      4639.23
       633.10000  8.82823e-11      4641.00
       633.20000  8.82823e-11      4642.76
       633.30000  8.82823e-11      4644.53
       633.40000  8.82823e-11      4646.30
       633.50000  1.59513e-10      8398.36
       633.60000  1.59513e-10      8401.55
       633.70000  1.59513e-10      8404.74
       633.80000  1.59489e-10      8405.04
       633.90000  1.59489e-10      8408.23
       634.00000  1.59489e-10      8411.42
       634.10000  1.59489e-10      8413.02
       634.20000  1.59489e-10      8416.21
       634.30000  1.59489e-10      8417.80
       634.40000  1.59489e-10      8420.99
       634.50000  1.41274e-10      7460.67
       634.60000  1.41274e-10      7462.08
       634.70000  1.41274e-10      7464.91
       634.80000  1.41274e-10      7466.32
       634.90000  1.41274e-10      7467.73
       635.00000  1.41274e-10      7469.15
       635.10000  1.41274e-10      7470.56
       635.20000  1.41274e-10      7470.56
       635.30000  1.41274e-10      7471.97
       635.40000  1.41274e-10      7471.97
       635.50000  1.52900e-10      8088.40
       635.60000  1.52900e-10      8089.93
       635.70000  1.52900e-10      8089.93
       635.80000  1.52900e-10      8091.45
       635.90000  1.52900e-10      8091.45
       636.00000  1.52900e-10      8092.98
       636.10000  1.52900e-10      8092.98
       636.20000  1.52900e-10      8094.51
       636.30000  1.51994e-10      8046.54
       636.40000  1.51994e-10      8048.06
       636.50000  1.78877e-10      9471.52
       636.60000  1.78877e-10      9473.30
       636.70000  1.78877e-10      9473.30
       636.80000  1.78877e-10      9475.09
       636.90000  1.78877e-10      9475.09
       637.00000  1.78877e-10      9475.09
       637.10000  1.78877e-10      9476.88
       637.20000  1.78877e-10      9476.88
       637.30000  1.78877e-10      9478.67
       637.40000  1.78877e-10      9478.67
       637.50000  2.64098e-10      13994.5
       637.60000  2.64098e-10      13997.2
       637.70000  2.64098e-10      13997.2
       637.80000  2.64098e-10      13999.8
       637.90000  2.64098e-10      13999.8
       638.00000  2.64098e-10      13999.8
       638.10000  2.64098e-10      14002.5
       638.20000  2.64098e-10      14002.5
       638.30000  2.64098e-10      14002.5
       638.40000  2.64098e-10      14005.1
       638.50000  1.95862e-10      10386.6
       638.60000  1.95862e-10      10386.6
       638.70000  1.95862e-10      10388.5
       638.80000  1.94578e-10      10320.4
       638.90000  1.94578e-10      10320.4
       639.00000  1.94578e-10      10320.4
       639.10000  1.94578e-10      10304.9
       639.20000  1.94578e-10      10289.3
       639.30000  1.94578e-10      10273.7
       639.40000  1.94578e-10      10260.1
       639.50000  1.12482e-10      5922.20
       639.60000  1.12482e-10      5915.45
       639.70000  1.12482e-10      5907.58
       639.80000  1.12482e-10      5900.83
       639.90000  1.12482e-10      5895.21
       640.00000  1.12482e-10      5888.46
       640.10000  1.12482e-10      5882.83
       640.20000  1.12482e-10      5878.33
       640.30000  1.12482e-10      5873.83
       640.40000  1.12482e-10      5869.33
       640.50000  1.14077e-10      5948.00
       640.60000  1.14077e-10      5944.58
       640.70000  1.14077e-10      5941.15
       640.80000  1.14077e-10      5938.87
       640.90000  1.14077e-10      5935.45
       641.00000  1.14077e-10      5934.31
       641.10000  1.14077e-10      5936.59
       641.20000  1.14077e-10      5938.87
       641.30000  1.13306e-10      5900.97
       641.40000  1.13306e-10      5903.23
       641.50000  2.51768e-10      13122.1
       641.60000  2.51768e-10      13127.2
       641.70000  2.51768e-10      13132.2
       641.80000  2.51768e-10      13137.2
       641.90000  2.51768e-10      13142.3
       642.00000  2.51768e-10      13147.3
       642.10000  2.51768e-10      13149.8
       642.20000  2.51768e-10      13154.9
       642.30000  2.51768e-10      13159.9
       642.40000  2.51768e-10      13164.9
       642.50000  4.45680e-10      23313.5
       642.60000  4.45680e-10      23322.5
       642.70000  4.45680e-10      23331.4
       642.80000  4.45680e-10      23340.3
       642.90000  4.45680e-10      23349.2
       643.00000  4.45680e-10      23358.1
       643.10000  4.45680e-10      23362.6
       643.20000  4.45680e-10      23371.5
       643.30000  4.45680e-10      23380.4
       643.40000  4.45680e-10      23389.3
       643.50000  5.68235e-10      29832.3
       643.60000  5.68235e-10      29843.7
       643.70000  5.68235e-10      29849.4
       643.80000  5.67478e-10      29821.0
