PDS_VERSION_ID         = PDS3
RECORD_TYPE            = STREAM
OBJECT                 = TEXT
  PUBLICATION_DATE     = 2014-04-25
  INTERCHANGE_FORMAT   = ASCII
  NOTE                 = "System transmission vs. wavelength."
END_OBJECT             = TEXT
END
    
The systrans directory contains the non-wavelength-integrated system 
transmission values (QE*optics*filter1*filter2) for each filter combination. 
The naming convention for these files is as follows:

<camera><filter 1><filter 2>_systrans.tab

where <camera> is "issna" or "isswa," and <filter 1> and <filter 2> represent
the filter names. For polarized filter combinations, values are given for the
parallel orientation of the filter (full transmission), with values for the 
perpendicular (blocking) orientation provided in files with subscript 
"_b_systrans.tab". 

Columns in systrans files are as follows:

 1st column: Wavelength (nm)  
 2nd column: Transmitted Flux
 3rd column: Transmitted Flux * Solar Flux (phot per cm^2-s-angstrom at 1 AU)

The solar spectrum used for this calculation is provided in solarflux.tab.

\begindata
       619.00000  1.89430e-15     0.100815
       619.10000  1.89430e-15     0.100739
       619.20000  1.89430e-15     0.100701
       619.30000  1.89430e-15     0.100682
       619.40000  1.89430e-15     0.100682
       619.50000  1.54794e-10      8230.39
       619.60000  1.54794e-10      8259.80
       619.70000  1.54794e-10      8286.12
       619.80000  1.54794e-10      8309.34
       619.90000  1.54794e-10      8329.46
       620.00000  1.54794e-10      8344.94
       620.10000  1.54794e-10      8357.32
       620.20000  1.54794e-10      8366.61
       620.30000  1.54794e-10      8372.80
       620.40000  1.54794e-10      8374.35
       620.50000  3.87296e-10      20952.7
       620.60000  3.87296e-10      20867.5
       620.70000  3.87296e-10      20786.2
       620.80000  3.87296e-10      20716.5
       620.90000  3.87296e-10      20654.5
       621.00000  3.87296e-10      20600.3
       621.10000  3.87296e-10      20553.8
       621.20000  3.87296e-10      20519.0
       621.30000  3.86799e-10      20461.7
       621.40000  3.86799e-10      20438.5
       621.50000  7.14174e-10      37715.5
       621.60000  7.14174e-10      37844.1
       621.70000  7.14174e-10      37958.3
       621.80000  7.14174e-10      38051.2
       621.90000  7.14174e-10      38136.9
       622.00000  7.14174e-10      38201.2
       622.10000  7.14174e-10      38251.2
       622.20000  7.14174e-10      38279.7
       622.30000  7.14174e-10      38301.1
       622.40000  7.14174e-10      38301.1
       622.50000  8.81163e-10      47239.1
       622.60000  8.81163e-10      47203.9
       622.70000  8.81163e-10      47151.0
       622.80000  8.81163e-10      47080.5
       622.90000  8.81163e-10      46983.6
       623.00000  8.81163e-10      46877.9
       623.10000  8.81163e-10      46745.7
       623.20000  8.81163e-10      46587.1
       623.30000  8.81163e-10      46419.7
       623.40000  8.81163e-10      46225.8
       623.50000  3.57899e-10      18693.1
       623.60000  3.57899e-10      18689.5
       623.70000  3.57899e-10      18689.5
       623.80000  3.57129e-10      18642.1
       623.90000  3.57129e-10      18638.6
       624.00000  3.57129e-10      18631.4
       624.10000  3.57129e-10      18620.7
       624.20000  3.57129e-10      18610.0
       624.30000  3.57129e-10      18599.3
       624.40000  3.57129e-10      18585.0
       624.50000  1.48801e-09      77376.7
       624.60000  1.48801e-09      77079.0
       624.70000  1.48801e-09      76841.0
       624.80000  1.48801e-09      76632.6
       624.90000  1.48801e-09      76469.0
       625.00000  1.48801e-09      76349.9
       625.10000  1.48801e-09      76275.5
       625.20000  1.48801e-09      76230.9
       625.30000  1.48801e-09      76245.8
       625.40000  1.48801e-09      76290.4
       625.50000  1.00245e-09      51455.6
       625.60000  1.00245e-09      51535.8
       625.70000  1.00245e-09      51656.1
       625.80000  1.00245e-09      51796.4
       625.90000  1.00245e-09      51966.8
       626.00000  1.00245e-09      52167.3
       626.10000  1.00245e-09      52397.9
       626.20000  1.00245e-09      52648.5
       626.30000  1.00087e-09      52855.7
       626.40000  1.00087e-09      53166.0
       626.50000  1.33478e-09      71344.2
       626.60000  1.33478e-09      71357.6
       626.70000  1.33478e-09      71370.9
       626.80000  1.33478e-09      71384.3
       626.90000  1.33478e-09      71397.6
       627.00000  1.33478e-09      71411.0
       627.10000  1.33478e-09      71424.3
       627.20000  1.33478e-09      71424.3
       627.30000  1.33478e-09      71437.7
       627.40000  1.33478e-09      71451.0
       627.50000  1.40831e-08      754007.
       627.60000  1.40831e-08      754570.
       627.70000  1.40831e-08      754993.
       627.80000  1.40831e-08      755274.
       627.90000  1.40831e-08      755556.
       628.00000  1.40831e-08      755697.
       628.10000  1.40831e-08      755838.
       628.20000  1.40831e-08      755838.
       628.30000  1.40831e-08      755697.
       628.40000  1.40831e-08      755556.
       628.50000  4.18058e-08  2.24204e+06
       628.60000  4.18058e-08  2.24079e+06
       628.70000  4.18058e-08  2.23954e+06
       628.80000  4.17174e-08  2.23313e+06
       628.90000  4.17174e-08  2.23105e+06
       629.00000  4.17174e-08  2.22896e+06
       629.10000  4.17174e-08  2.22646e+06
       629.20000  4.17174e-08  2.22396e+06
       629.30000  4.17174e-08  2.22104e+06
       629.40000  4.17174e-08  2.21770e+06
       629.50000  1.28098e-08      679946.
       629.60000  1.28098e-08      678537.
       629.70000  1.28098e-08      677128.
       629.80000  1.28098e-08      675847.
       629.90000  1.28098e-08      674694.
       630.00000  1.28098e-08      673541.
       630.10000  1.28098e-08      672388.
       630.20000  1.28098e-08      671491.
       630.30000  1.28098e-08      670467.
       630.40000  1.28098e-08      669698.
       630.50000  2.47945e-08  1.29477e+06
       630.60000  2.47945e-08  1.29328e+06
       630.70000  2.47945e-08  1.29204e+06
       630.80000  2.47945e-08  1.29105e+06
       630.90000  2.47945e-08  1.29006e+06
       631.00000  2.47945e-08  1.28931e+06
       631.10000  2.47945e-08  1.29006e+06
       631.20000  2.47945e-08  1.29080e+06
       631.30000  2.47933e-08  1.29173e+06
       631.40000  2.47933e-08  1.29247e+06
       631.50000  2.25189e-07  1.17459e+07
       631.60000  2.25189e-07  1.17526e+07
       631.70000  2.25189e-07  1.17594e+07
       631.80000  2.25189e-07  1.17639e+07
       631.90000  2.25189e-07  1.17706e+07
       632.00000  2.25189e-07  1.17774e+07
       632.10000  2.25189e-07  1.17842e+07
       632.20000  2.25189e-07  1.17887e+07
       632.30000  2.25189e-07  1.17954e+07
       632.40000  2.25189e-07  1.18022e+07
       632.50000  6.74872e-08  3.53835e+06
       632.60000  6.74872e-08  3.53970e+06
       632.70000  6.74872e-08  3.54173e+06
       632.80000  6.74872e-08  3.54308e+06
       632.90000  6.74872e-08  3.54443e+06
       633.00000  6.74872e-08  3.54645e+06
       633.10000  6.74872e-08  3.54780e+06
       633.20000  6.74872e-08  3.54915e+06
       633.30000  6.74872e-08  3.55050e+06
       633.40000  6.74872e-08  3.55185e+06
       633.50000  1.14690e-07  6.03844e+06
       633.60000  1.14690e-07  6.04073e+06
       633.70000  1.14690e-07  6.04303e+06
       633.80000  1.14673e-07  6.04325e+06
       633.90000  1.14673e-07  6.04554e+06
       634.00000  1.14673e-07  6.04783e+06
       634.10000  1.14673e-07  6.04898e+06
       634.20000  1.14673e-07  6.05127e+06
       634.30000  1.14673e-07  6.05242e+06
       634.40000  1.14673e-07  6.05471e+06
       634.50000  4.87726e-08  2.57568e+06
       634.60000  4.87726e-08  2.57617e+06
       634.70000  4.87726e-08  2.57714e+06
       634.80000  4.87726e-08  2.57763e+06
       634.90000  4.87726e-08  2.57812e+06
       635.00000  4.87726e-08  2.57861e+06
       635.10000  4.87726e-08  2.57909e+06
       635.20000  4.87726e-08  2.57909e+06
       635.30000  4.87726e-08  2.57958e+06
       635.40000  4.87726e-08  2.57958e+06
       635.50000  1.48285e-07  7.84428e+06
       635.60000  1.48285e-07  7.84576e+06
       635.70000  1.48285e-07  7.84576e+06
       635.80000  1.48285e-07  7.84724e+06
       635.90000  1.48285e-07  7.84724e+06
       636.00000  1.48285e-07  7.84872e+06
       636.10000  1.48285e-07  7.84872e+06
       636.20000  1.48285e-07  7.85021e+06
       636.30000  1.47406e-07  7.80368e+06
       636.40000  1.47406e-07  7.80515e+06
       636.50000  1.28094e-07  6.78260e+06
       636.60000  1.28094e-07  6.78388e+06
       636.70000  1.28094e-07  6.78388e+06
       636.80000  1.28094e-07  6.78516e+06
       636.90000  1.28094e-07  6.78516e+06
       637.00000  1.28094e-07  6.78516e+06
       637.10000  1.28094e-07  6.78644e+06
       637.20000  1.28094e-07  6.78644e+06
       637.30000  1.28094e-07  6.78772e+06
       637.40000  1.28094e-07  6.78772e+06
       637.50000  9.38704e-08  4.97419e+06
       637.60000  9.38704e-08  4.97513e+06
       637.70000  9.38704e-08  4.97513e+06
       637.80000  9.38704e-08  4.97607e+06
       637.90000  9.38704e-08  4.97607e+06
       638.00000  9.38704e-08  4.97607e+06
       638.10000  9.38704e-08  4.97701e+06
       638.20000  9.38704e-08  4.97701e+06
       638.30000  9.38704e-08  4.97701e+06
       638.40000  9.38704e-08  4.97794e+06
       638.50000  4.82169e-08  2.55694e+06
       638.60000  4.82169e-08  2.55694e+06
       638.70000  4.82169e-08  2.55742e+06
       638.80000  4.79007e-08  2.54065e+06
       638.90000  4.79007e-08  2.54065e+06
       639.00000  4.79007e-08  2.54065e+06
       639.10000  4.79007e-08  2.53682e+06
       639.20000  4.79007e-08  2.53299e+06
       639.30000  4.79007e-08  2.52916e+06
       639.40000  4.79007e-08  2.52581e+06
       639.50000  2.50141e-08  1.31699e+06
       639.60000  2.50141e-08  1.31549e+06
       639.70000  2.50141e-08  1.31374e+06
       639.80000  2.50141e-08  1.31224e+06
       639.90000  2.50141e-08  1.31099e+06
       640.00000  2.50141e-08  1.30949e+06
       640.10000  2.50141e-08  1.30824e+06
       640.20000  2.50141e-08  1.30724e+06
       640.30000  2.50141e-08  1.30624e+06
       640.40000  2.50141e-08  1.30523e+06
       640.50000  6.67463e-08  3.48015e+06
       640.60000  6.67463e-08  3.47815e+06
       640.70000  6.67463e-08  3.47615e+06
       640.80000  6.67463e-08  3.47481e+06
       640.90000  6.67463e-08  3.47281e+06
       641.00000  6.67463e-08  3.47214e+06
       641.10000  6.67463e-08  3.47348e+06
       641.20000  6.67463e-08  3.47481e+06
       641.30000  6.62948e-08  3.45263e+06
       641.40000  6.62948e-08  3.45396e+06
       641.50000  3.78804e-09      197433.
       641.60000  3.78804e-09      197508.
       641.70000  3.78804e-09      197584.
       641.80000  3.78804e-09      197660.
       641.90000  3.78804e-09      197736.
       642.00000  3.78804e-09      197811.
       642.10000  3.78804e-09      197849.
       642.20000  3.78804e-09      197925.
       642.30000  3.78804e-09      198001.
       642.40000  3.78804e-09      198077.
       642.50000  2.02014e-08  1.05673e+06
       642.60000  2.02014e-08  1.05714e+06
       642.70000  2.02014e-08  1.05754e+06
       642.80000  2.02014e-08  1.05795e+06
       642.90000  2.02014e-08  1.05835e+06
       643.00000  2.02014e-08  1.05875e+06
       643.10000  2.02014e-08  1.05896e+06
       643.20000  2.02014e-08  1.05936e+06
       643.30000  2.02014e-08  1.05976e+06
       643.40000  2.02014e-08  1.06017e+06
       643.50000  1.55591e-08      816855.
       643.60000  1.55591e-08      817166.
       643.70000  1.55591e-08      817321.
       643.80000  1.55384e-08      816544.
       643.90000  1.55384e-08      816854.
       644.00000  1.55384e-08      817165.
       644.10000  1.55384e-08      817476.
       644.20000  1.55384e-08      817631.
       644.30000  1.55384e-08      817942.
       644.40000  1.55384e-08      818253.
       644.50000  7.19999e-09      379295.
       644.60000  7.19999e-09      379367.
       644.70000  7.19999e-09      379511.
       644.80000  7.19999e-09      379655.
       644.90000  7.19999e-09      379799.
       645.00000  7.19999e-09      379871.
       645.10000  7.19999e-09      379799.
       645.20000  7.19999e-09      379655.
       645.30000  7.19999e-09      379583.
       645.40000  7.19999e-09      379439.
       645.50000  7.07080e-09      372419.
       645.60000  7.07080e-09      372278.
       645.70000  7.07080e-09      372136.
       645.80000  7.07080e-09      371924.
       645.90000  7.07080e-09      371712.
       646.00000  7.07080e-09      371500.
       646.10000  7.07080e-09      371288.
       646.20000  7.07080e-09      371076.
       646.30000  7.06647e-09      370565.
       646.40000  7.06647e-09      370283.
       646.50000  3.65572e-09      191450.
       646.60000  3.65572e-09      191267.
       646.70000  3.65572e-09      191121.
       646.80000  3.65572e-09      190975.
       646.90000  3.65572e-09      190792.
       647.00000  3.65572e-09      190646.
       647.10000  3.65572e-09      190134.
       647.20000  3.65572e-09      189659.
       647.30000  3.65572e-09      189220.
       647.40000  3.65572e-09      188781.
       647.50000  1.65656e-09      85362.5
       647.60000  1.65656e-09      85213.5
       647.70000  1.65656e-09      85047.8
       647.80000  1.65656e-09      84915.3
       647.90000  1.65656e-09      84782.8
       648.00000  1.65656e-09      84666.8
       648.10000  1.65656e-09      84567.4
       648.20000  1.65656e-09      84484.6
       648.30000  1.65656e-09      84401.7
       648.40000  1.65656e-09      84335.5
       648.50000  1.81577e-09      92386.5
       648.60000  1.81577e-09      92350.2
       648.70000  1.81577e-09      92313.9
       648.80000  1.81765e-09      92391.2
       648.90000  1.81765e-09      92391.2
       649.00000  1.81765e-09      92409.4
       649.10000  1.81765e-09      92427.6
       649.20000  1.81765e-09      92482.1
       649.30000  1.81765e-09      92518.5
       649.40000  1.81765e-09      92591.2
       649.50000  1.03790e-09      52922.4
       649.60000  1.03790e-09      52974.3
       649.70000  1.03790e-09      53036.6
       649.80000  1.03790e-09      53109.3
       649.90000  1.03790e-09      53181.9
       650.00000  1.03790e-09      53264.9
       650.10000  1.03790e-09      53358.4
       650.20000  1.03790e-09      53462.1
       650.30000  1.03790e-09      53576.3
       650.40000  1.03790e-09      53690.5
       650.50000  1.53915e-10      7980.51
       650.60000  1.53915e-10      8000.52
       650.70000  1.53915e-10      8020.53
       650.80000  1.53915e-10      8043.62
       650.90000  1.53915e-10      8066.70
       651.00000  1.53915e-10      8091.33
       651.10000  1.53915e-10      8097.49
       651.20000  1.53915e-10      8103.64
       651.30000  1.53722e-10      8098.09
       651.40000  1.53722e-10      8102.71
       651.50000  1.25975e-11      664.390
       651.60000  1.25975e-11      664.516
       651.70000  1.25975e-11      664.768
       651.80000  1.25975e-11      664.894
       651.90000  1.25975e-11      664.894
       652.00000  1.25975e-11      664.894
       652.10000  1.25975e-11      664.768
       652.20000  1.25975e-11      664.642
       652.30000  1.25975e-11      664.516
       652.40000  1.25975e-11      664.264
       652.50000  1.85111e-10      9755.34
       652.60000  1.85111e-10      9749.79
       652.70000  1.85111e-10      9744.23
       652.80000  1.85111e-10      9734.98
       652.90000  1.85111e-10      9727.57
       653.00000  1.85111e-10      9718.32
       653.10000  1.85111e-10      9710.92
       653.20000  1.85111e-10      9703.51
       653.30000  1.85111e-10      9692.40
       653.40000  1.85111e-10      9681.30
       653.50000  9.99616e-11      5221.99
       653.60000  9.99616e-11      5215.00
       653.70000  9.99616e-11      5207.00
       653.80000  9.98398e-11      5191.67
       653.90000  9.98398e-11      5182.68
       654.00000  9.98398e-11      5172.70
       654.10000  9.98398e-11      5162.72
       654.20000  9.98398e-11      5150.74
       654.30000  9.98398e-11      5138.76
       654.40000  9.98398e-11      5126.77
       654.50000  2.66048e-11      1362.70
       654.60000  2.66048e-11      1358.97
       654.70000  2.66048e-11      1354.98
       654.80000  2.66048e-11      1350.99
       654.90000  2.66048e-11      1346.73
       655.00000  2.66048e-11      1342.21
       655.10000  2.66048e-11      1329.44
       655.20000  2.66048e-11      1317.20
       655.30000  2.66048e-11      1305.76
       655.40000  2.66048e-11      1295.12
       655.50000  1.93549e-11      934.842
       655.60000  1.93549e-11      928.068
       655.70000  1.93549e-11      921.681
       655.80000  1.93549e-11      915.874
       655.90000  1.93549e-11      910.455
       656.00000  1.93549e-11      905.616
       656.10000  1.93549e-11      901.358
       656.20000  1.93549e-11      897.487
       656.30000  1.93402e-11      893.517
       656.40000  1.93402e-11      890.616
       656.50000  3.57509e-11      1642.04
       656.60000  3.57509e-11      1638.82
       656.70000  3.57509e-11      1636.32
       656.80000  3.57509e-11      1634.89
       656.90000  3.57509e-11      1634.17
       657.00000  3.57509e-11      1634.53
       657.10000  3.57509e-11      1648.47
       657.20000  3.57509e-11      1662.06
       657.30000  3.57509e-11      1675.29
       657.40000  3.57509e-11      1688.16
       657.50000  3.69828e-11      1758.90
       657.60000  3.69828e-11      1771.48
       657.70000  3.69828e-11      1783.31
       657.80000  3.69828e-11      1794.78
       657.90000  3.69828e-11      1805.50
       658.00000  3.69828e-11      1816.23
       658.10000  3.69828e-11      1826.58
       658.20000  3.69828e-11      1836.20
       658.30000  3.69828e-11      1845.44
       658.40000  3.69828e-11      1854.32
       658.50000  1.73238e-11      872.429
       658.60000  1.73238e-11      876.240
       658.70000  1.73238e-11      879.705
       658.80000  1.73059e-11      882.252
       658.90000  1.73059e-11      885.367
       659.00000  1.73059e-11      888.136
       659.10000  1.73059e-11      890.905
       659.20000  1.73059e-11      893.501
       659.30000  1.73059e-11      895.751
       659.40000  1.73059e-11      897.828
       659.50000  3.30626e-12      171.893
       659.60000  3.30626e-12      172.223
       659.70000  3.30626e-12      172.488
       659.80000  3.30626e-12      172.752
       659.90000  3.30626e-12      172.951
       660.00000  3.30626e-12      173.116
       660.10000  3.30626e-12      173.248
       660.20000  3.30626e-12      173.314
       660.30000  3.30626e-12      173.381
       660.40000  3.30626e-12      173.381
       660.50000  4.76192e-12      249.667
       660.60000  4.76192e-12      249.572
       660.70000  4.76192e-12      249.429
       660.80000  4.76192e-12      249.191
       660.90000  4.76192e-12      248.953
       661.00000  4.76192e-12      248.620
       661.10000  4.76192e-12      248.477
       661.20000  4.76192e-12      248.286
       661.30000  4.75009e-12      247.527
       661.40000  4.75009e-12      247.385
       661.50000  7.77938e-12      404.917
       661.60000  7.77938e-12      404.761
       661.70000  7.77938e-12      404.528
       661.80000  7.77938e-12      404.372
       661.90000  7.77938e-12      404.217
       662.00000  7.77938e-12      404.061
       662.10000  7.77938e-12      403.906
       662.20000  7.77938e-12      403.750
       662.30000  7.77938e-12      403.672
       662.40000  7.77938e-12      403.594
       662.50000  6.85196e-12      355.342
       662.60000  6.85196e-12      355.342
       662.70000  6.85196e-12      355.274
       662.80000  6.85196e-12      355.205
