PDS_VERSION_ID         = PDS3
RECORD_TYPE            = STREAM
OBJECT                 = TEXT
  PUBLICATION_DATE     = 2014-04-25
  INTERCHANGE_FORMAT   = ASCII
  NOTE                 = "System transmission vs. wavelength."
END_OBJECT             = TEXT
END
    
The systrans directory contains the non-wavelength-integrated system 
transmission values (QE*optics*filter1*filter2) for each filter combination. 
The naming convention for these files is as follows:

<camera><filter 1><filter 2>_systrans.tab

where <camera> is "issna" or "isswa," and <filter 1> and <filter 2> represent
the filter names. For polarized filter combinations, values are given for the
parallel orientation of the filter (full transmission), with values for the 
perpendicular (blocking) orientation provided in files with subscript 
"_b_systrans.tab". 

Columns in systrans files are as follows:

 1st column: Wavelength (nm)  
 2nd column: Transmitted Flux
 3rd column: Transmitted Flux * Solar Flux (phot per cm^2-s-angstrom at 1 AU)

The solar spectrum used for this calculation is provided in solarflux.tab.

\begindata
       619.00000  7.44916e-10      39644.4
       619.10000  7.44916e-10      39614.6
       619.20000  7.44916e-10      39599.7
       619.30000  7.44916e-10      39592.3
       619.40000  7.44916e-10      39592.3
       619.50000  4.19447e-10      22302.0
       619.60000  4.19447e-10      22381.7
       619.70000  4.19447e-10      22453.0
       619.80000  4.19447e-10      22515.9
       619.90000  4.19447e-10      22570.4
       620.00000  4.19447e-10      22612.4
       620.10000  4.19447e-10      22645.9
       620.20000  4.19447e-10      22671.1
       620.30000  4.19447e-10      22687.9
       620.40000  4.19447e-10      22692.1
       620.50000  2.93344e-10      15869.9
       620.60000  2.93344e-10      15805.4
       620.70000  2.93344e-10      15743.8
       620.80000  2.93344e-10      15691.0
       620.90000  2.93344e-10      15644.0
       621.00000  2.93344e-10      15603.0
       621.10000  2.93344e-10      15567.8
       621.20000  2.93344e-10      15541.4
       621.30000  2.92968e-10      15498.0
       621.40000  2.92968e-10      15480.4
       621.50000  3.73595e-10      19729.6
       621.60000  3.73595e-10      19796.8
       621.70000  3.73595e-10      19856.6
       621.80000  3.73595e-10      19905.1
       621.90000  3.73595e-10      19950.0
       622.00000  3.73595e-10      19983.6
       622.10000  3.73595e-10      20009.7
       622.20000  3.73595e-10      20024.7
       622.30000  3.73595e-10      20035.9
       622.40000  3.73595e-10      20035.9
       622.50000  7.33627e-11      3932.97
       622.60000  7.33627e-11      3930.04
       622.70000  7.33627e-11      3925.64
       622.80000  7.33627e-11      3919.77
       622.90000  7.33627e-11      3911.70
       623.00000  7.33627e-11      3902.90
       623.10000  7.33627e-11      3891.89
       623.20000  7.33627e-11      3878.69
       623.30000  7.33627e-11      3864.75
       623.40000  7.33627e-11      3848.61
       623.50000  1.23138e-09      64314.9
       623.60000  1.23138e-09      64302.6
       623.70000  1.23138e-09      64302.6
       623.80000  1.22873e-09      64139.6
       623.90000  1.22873e-09      64127.3
       624.00000  1.22873e-09      64102.7
       624.10000  1.22873e-09      64065.9
       624.20000  1.22873e-09      64029.0
       624.30000  1.22873e-09      63992.2
       624.40000  1.22873e-09      63943.0
       624.50000  2.67478e-09      139088.
       624.60000  2.67478e-09      138553.
       624.70000  2.67478e-09      138125.
       624.80000  2.67478e-09      137751.
       624.90000  2.67478e-09      137457.
       625.00000  2.67478e-09      137243.
       625.10000  2.67478e-09      137109.
       625.20000  2.67478e-09      137029.
       625.30000  2.67478e-09      137055.
       625.40000  2.67478e-09      137136.
       625.50000  8.67729e-09      445406.
       625.60000  8.67729e-09      446100.
       625.70000  8.67729e-09      447141.
       625.80000  8.67729e-09      448356.
       625.90000  8.67729e-09      449831.
       626.00000  8.67729e-09      451566.
       626.10000  8.67729e-09      453562.
       626.20000  8.67729e-09      455731.
       626.30000  8.66361e-09      457525.
       626.40000  8.66361e-09      460211.
       626.50000  3.73326e-08  1.99543e+06
       626.60000  3.73326e-08  1.99580e+06
       626.70000  3.73326e-08  1.99617e+06
       626.80000  3.73326e-08  1.99655e+06
       626.90000  3.73326e-08  1.99692e+06
       627.00000  3.73326e-08  1.99729e+06
       627.10000  3.73326e-08  1.99767e+06
       627.20000  3.73326e-08  1.99767e+06
       627.30000  3.73326e-08  1.99804e+06
       627.40000  3.73326e-08  1.99841e+06
       627.50000  8.90729e-08  4.76897e+06
       627.60000  8.90729e-08  4.77253e+06
       627.70000  8.90729e-08  4.77520e+06
       627.80000  8.90729e-08  4.77698e+06
       627.90000  8.90729e-08  4.77876e+06
       628.00000  8.90729e-08  4.77965e+06
       628.10000  8.90729e-08  4.78054e+06
       628.20000  8.90729e-08  4.78054e+06
       628.30000  8.90729e-08  4.77965e+06
       628.40000  8.90729e-08  4.77876e+06
       628.50000  1.78045e-07  9.54856e+06
       628.60000  1.78045e-07  9.54322e+06
       628.70000  1.78045e-07  9.53788e+06
       628.80000  1.77669e-07  9.51062e+06
       628.90000  1.77669e-07  9.50173e+06
       629.00000  1.77669e-07  9.49285e+06
       629.10000  1.77669e-07  9.48219e+06
       629.20000  1.77669e-07  9.47153e+06
       629.30000  1.77669e-07  9.45909e+06
       629.40000  1.77669e-07  9.44488e+06
       629.50000  2.33507e-07  1.23946e+07
       629.60000  2.33507e-07  1.23689e+07
       629.70000  2.33507e-07  1.23432e+07
       629.80000  2.33507e-07  1.23198e+07
       629.90000  2.33507e-07  1.22988e+07
       630.00000  2.33507e-07  1.22778e+07
       630.10000  2.33507e-07  1.22568e+07
       630.20000  2.33507e-07  1.22404e+07
       630.30000  2.33507e-07  1.22218e+07
       630.40000  2.33507e-07  1.22078e+07
       630.50000  2.79437e-07  1.45922e+07
       630.60000  2.79437e-07  1.45754e+07
       630.70000  2.79437e-07  1.45615e+07
       630.80000  2.79437e-07  1.45503e+07
       630.90000  2.79437e-07  1.45391e+07
       631.00000  2.79437e-07  1.45307e+07
       631.10000  2.79437e-07  1.45391e+07
       631.20000  2.79437e-07  1.45475e+07
       631.30000  2.79423e-07  1.45580e+07
       631.40000  2.79423e-07  1.45663e+07
       631.50000  2.07395e-07  1.08177e+07
       631.60000  2.07395e-07  1.08239e+07
       631.70000  2.07395e-07  1.08302e+07
       631.80000  2.07395e-07  1.08343e+07
       631.90000  2.07395e-07  1.08405e+07
       632.00000  2.07395e-07  1.08468e+07
       632.10000  2.07395e-07  1.08530e+07
       632.20000  2.07395e-07  1.08571e+07
       632.30000  2.07395e-07  1.08634e+07
       632.40000  2.07395e-07  1.08696e+07
       632.50000  2.73215e-07  1.43247e+07
       632.60000  2.73215e-07  1.43301e+07
       632.70000  2.73215e-07  1.43383e+07
       632.80000  2.73215e-07  1.43438e+07
       632.90000  2.73215e-07  1.43493e+07
       633.00000  2.73215e-07  1.43574e+07
       633.10000  2.73215e-07  1.43629e+07
       633.20000  2.73215e-07  1.43684e+07
       633.30000  2.73215e-07  1.43738e+07
       633.40000  2.73215e-07  1.43793e+07
       633.50000  2.88243e-07  1.51760e+07
       633.60000  2.88243e-07  1.51818e+07
       633.70000  2.88243e-07  1.51875e+07
       633.80000  2.88199e-07  1.51881e+07
       633.90000  2.88199e-07  1.51938e+07
       634.00000  2.88199e-07  1.51996e+07
       634.10000  2.88199e-07  1.52025e+07
       634.20000  2.88199e-07  1.52082e+07
       634.30000  2.88199e-07  1.52111e+07
       634.40000  2.88199e-07  1.52169e+07
       634.50000  1.81029e-07  9.56016e+06
       634.60000  1.81029e-07  9.56197e+06
       634.70000  1.81029e-07  9.56559e+06
       634.80000  1.81029e-07  9.56740e+06
       634.90000  1.81029e-07  9.56921e+06
       635.00000  1.81029e-07  9.57102e+06
       635.10000  1.81029e-07  9.57283e+06
       635.20000  1.81029e-07  9.57283e+06
       635.30000  1.81029e-07  9.57464e+06
       635.40000  1.81029e-07  9.57464e+06
       635.50000  1.65890e-07  8.77557e+06
       635.60000  1.65890e-07  8.77723e+06
       635.70000  1.65890e-07  8.77723e+06
       635.80000  1.65890e-07  8.77889e+06
       635.90000  1.65890e-07  8.77889e+06
       636.00000  1.65890e-07  8.78054e+06
       636.10000  1.65890e-07  8.78054e+06
       636.20000  1.65890e-07  8.78220e+06
       636.30000  1.64907e-07  8.73015e+06
       636.40000  1.64907e-07  8.73180e+06
       636.50000  1.73089e-07  9.16507e+06
       636.60000  1.73089e-07  9.16680e+06
       636.70000  1.73089e-07  9.16680e+06
       636.80000  1.73089e-07  9.16853e+06
       636.90000  1.73089e-07  9.16853e+06
       637.00000  1.73089e-07  9.16853e+06
       637.10000  1.73089e-07  9.17026e+06
       637.20000  1.73089e-07  9.17026e+06
       637.30000  1.73089e-07  9.17199e+06
       637.40000  1.73089e-07  9.17199e+06
       637.50000  1.52083e-07  8.05888e+06
       637.60000  1.52083e-07  8.06040e+06
       637.70000  1.52083e-07  8.06040e+06
       637.80000  1.52083e-07  8.06192e+06
       637.90000  1.52083e-07  8.06192e+06
       638.00000  1.52083e-07  8.06192e+06
       638.10000  1.52083e-07  8.06344e+06
       638.20000  1.52083e-07  8.06344e+06
       638.30000  1.52083e-07  8.06344e+06
       638.40000  1.52083e-07  8.06497e+06
       638.50000  1.67455e-07  8.88014e+06
       638.60000  1.67455e-07  8.88014e+06
       638.70000  1.67455e-07  8.88181e+06
       638.80000  1.66357e-07  8.82357e+06
       638.90000  1.66357e-07  8.82357e+06
       639.00000  1.66357e-07  8.82357e+06
       639.10000  1.66357e-07  8.81026e+06
       639.20000  1.66357e-07  8.79695e+06
       639.30000  1.66357e-07  8.78365e+06
       639.40000  1.66357e-07  8.77200e+06
       639.50000  1.49989e-07  7.89695e+06
       639.60000  1.49989e-07  7.88795e+06
       639.70000  1.49989e-07  7.87745e+06
       639.80000  1.49989e-07  7.86845e+06
       639.90000  1.49989e-07  7.86095e+06
       640.00000  1.49989e-07  7.85195e+06
       640.10000  1.49989e-07  7.84445e+06
       640.20000  1.49989e-07  7.83845e+06
       640.30000  1.49989e-07  7.83245e+06
       640.40000  1.49989e-07  7.82645e+06
       640.50000  9.36658e-08  4.88373e+06
       640.60000  9.36658e-08  4.88092e+06
       640.70000  9.36658e-08  4.87811e+06
       640.80000  9.36658e-08  4.87624e+06
       640.90000  9.36658e-08  4.87343e+06
       641.00000  9.36658e-08  4.87249e+06
       641.10000  9.36658e-08  4.87437e+06
       641.20000  9.36658e-08  4.87624e+06
       641.30000  9.30322e-08  4.84512e+06
       641.40000  9.30322e-08  4.84698e+06
       641.50000  5.30150e-08  2.76314e+06
       641.60000  5.30150e-08  2.76420e+06
       641.70000  5.30150e-08  2.76526e+06
       641.80000  5.30150e-08  2.76632e+06
       641.90000  5.30150e-08  2.76738e+06
       642.00000  5.30150e-08  2.76844e+06
       642.10000  5.30150e-08  2.76897e+06
       642.20000  5.30150e-08  2.77003e+06
       642.30000  5.30150e-08  2.77109e+06
       642.40000  5.30150e-08  2.77215e+06
       642.50000  4.79515e-08  2.50834e+06
       642.60000  4.79515e-08  2.50930e+06
       642.70000  4.79515e-08  2.51026e+06
       642.80000  4.79515e-08  2.51122e+06
       642.90000  4.79515e-08  2.51218e+06
       643.00000  4.79515e-08  2.51314e+06
       643.10000  4.79515e-08  2.51362e+06
       643.20000  4.79515e-08  2.51458e+06
       643.30000  4.79515e-08  2.51554e+06
       643.40000  4.79515e-08  2.51649e+06
       643.50000  1.97315e-08  1.03590e+06
       643.60000  1.97315e-08  1.03630e+06
       643.70000  1.97315e-08  1.03650e+06
       643.80000  1.97052e-08  1.03551e+06
       643.90000  1.97052e-08  1.03590e+06
       644.00000  1.97052e-08  1.03630e+06
       644.10000  1.97052e-08  1.03669e+06
       644.20000  1.97052e-08  1.03689e+06
       644.30000  1.97052e-08  1.03728e+06
       644.40000  1.97052e-08  1.03768e+06
       644.50000  4.49913e-09      237014.
       644.60000  4.49913e-09      237059.
       644.70000  4.49913e-09      237149.
       644.80000  4.49913e-09      237239.
       644.90000  4.49913e-09      237329.
       645.00000  4.49913e-09      237374.
       645.10000  4.49913e-09      237329.
       645.20000  4.49913e-09      237239.
       645.30000  4.49913e-09      237194.
       645.40000  4.49913e-09      237104.
       645.50000  2.95713e-09      155752.
       645.60000  2.95713e-09      155693.
       645.70000  2.95713e-09      155634.
       645.80000  2.95713e-09      155545.
       645.90000  2.95713e-09      155456.
       646.00000  2.95713e-09      155367.
       646.10000  2.95713e-09      155279.
       646.20000  2.95713e-09      155190.
       646.30000  2.95531e-09      154977.
       646.40000  2.95531e-09      154858.
       646.50000  9.24127e-10      48396.5
       646.60000  9.24127e-10      48350.3
       646.70000  9.24127e-10      48313.4
       646.80000  9.24127e-10      48276.4
       646.90000  9.24127e-10      48230.2
       647.00000  9.24127e-10      48193.2
       647.10000  9.24127e-10      48063.8
       647.20000  9.24127e-10      47943.7
       647.30000  9.24127e-10      47832.8
       647.40000  9.24127e-10      47721.9
       647.50000  1.42665e-09      73515.4
       647.60000  1.42665e-09      73387.0
       647.70000  1.42665e-09      73244.3
       647.80000  1.42665e-09      73130.2
       647.90000  1.42665e-09      73016.0
       648.00000  1.42665e-09      72916.2
       648.10000  1.42665e-09      72830.6
       648.20000  1.42665e-09      72759.2
       648.30000  1.42665e-09      72687.9
       648.40000  1.42665e-09      72630.8
       648.50000  1.43285e-09      72903.6
       648.60000  1.43285e-09      72875.0
       648.70000  1.43285e-09      72846.3
       648.80000  1.43434e-09      72907.4
       648.90000  1.43434e-09      72907.4
       649.00000  1.43434e-09      72921.7
       649.10000  1.43434e-09      72936.0
       649.20000  1.43434e-09      72979.1
       649.30000  1.43434e-09      73007.8
       649.40000  1.43434e-09      73065.1
       649.50000  9.06486e-10      46221.7
       649.60000  9.06486e-10      46267.1
       649.70000  9.06486e-10      46321.5
       649.80000  9.06486e-10      46384.9
       649.90000  9.06486e-10      46448.4
       650.00000  9.06486e-10      46520.9
       650.10000  9.06486e-10      46602.5
       650.20000  9.06486e-10      46693.1
       650.30000  9.06486e-10      46792.8
       650.40000  9.06486e-10      46892.5
       650.50000  6.02606e-10      31245.1
       650.60000  6.02606e-10      31323.5
       650.70000  6.02606e-10      31401.8
       650.80000  6.02606e-10      31492.2
       650.90000  6.02606e-10      31582.6
       651.00000  6.02606e-10      31679.0
       651.10000  6.02606e-10      31703.1
       651.20000  6.02606e-10      31727.2
       651.30000  6.01851e-10      31705.5
       651.40000  6.01851e-10      31723.6
       651.50000  3.06454e-10      16162.4
       651.60000  3.06454e-10      16165.4
       651.70000  3.06454e-10      16171.6
       651.80000  3.06454e-10      16174.6
       651.90000  3.06454e-10      16174.6
       652.00000  3.06454e-10      16174.6
       652.10000  3.06454e-10      16171.6
       652.20000  3.06454e-10      16168.5
       652.30000  3.06454e-10      16165.4
       652.40000  3.06454e-10      16159.3
       652.50000  3.40788e-10      17959.5
       652.60000  3.40788e-10      17949.3
       652.70000  3.40788e-10      17939.1
       652.80000  3.40788e-10      17922.1
       652.90000  3.40788e-10      17908.4
       653.00000  3.40788e-10      17891.4
       653.10000  3.40788e-10      17877.8
       653.20000  3.40788e-10      17864.1
       653.30000  3.40788e-10      17843.7
       653.40000  3.40788e-10      17823.2
       653.50000  1.53372e-10      8012.14
       653.60000  1.53372e-10      8001.40
       653.70000  1.53372e-10      7989.14
       653.80000  1.53185e-10      7965.62
       653.90000  1.53185e-10      7951.83
       654.00000  1.53185e-10      7936.51
       654.10000  1.53185e-10      7921.19
       654.20000  1.53185e-10      7902.81
       654.30000  1.53185e-10      7884.43
       654.40000  1.53185e-10      7866.04
       654.50000  8.75951e-11      4486.62
       654.60000  8.75951e-11      4474.36
       654.70000  8.75951e-11      4461.22
       654.80000  8.75951e-11      4448.08
       654.90000  8.75951e-11      4434.06
       655.00000  8.75951e-11      4419.17
       655.10000  8.75951e-11      4377.13
       655.20000  8.75951e-11      4336.83
       655.30000  8.75951e-11      4299.17
       655.40000  8.75951e-11      4264.13
       655.50000  9.91570e-11      4789.28
       655.60000  9.91570e-11      4754.58
       655.70000  9.91570e-11      4721.86
       655.80000  9.91570e-11      4692.11
       655.90000  9.91570e-11      4664.35
       656.00000  9.91570e-11      4639.56
       656.10000  9.91570e-11      4617.74
       656.20000  9.91570e-11      4597.91
       656.30000  9.90816e-11      4577.57
       656.40000  9.90816e-11      4562.71
       656.50000  6.73970e-11      3095.54
       656.60000  6.73970e-11      3089.48
       656.70000  6.73970e-11      3084.76
       656.80000  6.73970e-11      3082.06
       656.90000  6.73970e-11      3080.72
       657.00000  6.73970e-11      3081.39
       657.10000  6.73970e-11      3107.68
       657.20000  6.73970e-11      3133.29
       657.30000  6.73970e-11      3158.22
       657.40000  6.73970e-11      3182.49
       657.50000  5.93979e-11      2824.96
       657.60000  5.93979e-11      2845.16
       657.70000  5.93979e-11      2864.16
       657.80000  5.93979e-11      2882.58
       657.90000  5.93979e-11      2899.80
       658.00000  5.93979e-11      2917.03
       658.10000  5.93979e-11      2933.66
       658.20000  5.93979e-11      2949.10
       658.30000  5.93979e-11      2963.95
       658.40000  5.93979e-11      2978.21
       658.50000  5.02729e-11      2531.74
       658.60000  5.02729e-11      2542.80
       658.70000  5.02729e-11      2552.86
       658.80000  5.02207e-11      2560.25
       658.90000  5.02207e-11      2569.29
       659.00000  5.02207e-11      2577.33
       659.10000  5.02207e-11      2585.36
       659.20000  5.02207e-11      2592.90
       659.30000  5.02207e-11      2599.42
       659.40000  5.02207e-11      2605.45
       659.50000  4.22119e-11      2194.59
       659.60000  4.22119e-11      2198.82
       659.70000  4.22119e-11      2202.19
       659.80000  4.22119e-11      2205.57
       659.90000  4.22119e-11      2208.10
       660.00000  4.22119e-11      2210.21
       660.10000  4.22119e-11      2211.90
       660.20000  4.22119e-11      2212.75
       660.30000  4.22119e-11      2213.59
       660.40000  4.22119e-11      2213.59
       660.50000  3.74500e-11      1963.50
       660.60000  3.74500e-11      1962.75
       660.70000  3.74500e-11      1961.63
       660.80000  3.74500e-11      1959.76
       660.90000  3.74500e-11      1957.89
       661.00000  3.74500e-11      1955.26
       661.10000  3.74500e-11      1954.14
       661.20000  3.74500e-11      1952.64
       661.30000  3.73570e-11      1946.67
       661.40000  3.73570e-11      1945.55
       661.50000  3.13571e-11      1632.14
       661.60000  3.13571e-11      1631.51
       661.70000  3.13571e-11      1630.57
       661.80000  3.13571e-11      1629.94
       661.90000  3.13571e-11      1629.31
       662.00000  3.13571e-11      1628.69
       662.10000  3.13571e-11      1628.06
       662.20000  3.13571e-11      1627.43
       662.30000  3.13571e-11      1627.12
       662.40000  3.13571e-11      1626.81
       662.50000  2.08170e-11      1079.57
       662.60000  2.08170e-11      1079.57
       662.70000  2.08170e-11      1079.36
       662.80000  2.08170e-11      1079.15
