PDS_VERSION_ID         = PDS3
RECORD_TYPE            = STREAM
OBJECT                 = TEXT
  PUBLICATION_DATE     = 2014-04-25
  INTERCHANGE_FORMAT   = ASCII
  NOTE                 = "System transmission vs. wavelength."
END_OBJECT             = TEXT
END
    
The systrans directory contains the non-wavelength-integrated system 
transmission values (QE*optics*filter1*filter2) for each filter combination. 
The naming convention for these files is as follows:

<camera><filter 1><filter 2>_systrans.tab

where <camera> is "issna" or "isswa," and <filter 1> and <filter 2> represent
the filter names. For polarized filter combinations, values are given for the
parallel orientation of the filter (full transmission), with values for the 
perpendicular (blocking) orientation provided in files with subscript 
"_b_systrans.tab". 

Columns in systrans files are as follows:

 1st column: Wavelength (nm)  
 2nd column: Transmitted Flux
 3rd column: Transmitted Flux * Solar Flux (phot per cm^2-s-angstrom at 1 AU)

The solar spectrum used for this calculation is provided in solarflux.tab.

\begindata
       600.00000  1.10665e-11      589.403
       600.10000  1.10665e-11      588.518
       600.20000  1.10665e-11      587.522
       600.30000  1.10665e-11      586.305
       600.40000  1.10665e-11      584.866
       600.50000  2.30251e-10      12138.8
       600.60000  2.30251e-10      12154.9
       600.70000  2.30251e-10      12168.7
       600.80000  2.30251e-10      12182.6
       600.90000  2.30251e-10      12191.8
       601.00000  2.30251e-10      12198.7
       601.10000  2.30251e-10      12201.0
       601.20000  2.30251e-10      12203.3
       601.30000  2.30133e-10      12197.1
       601.40000  2.30133e-10      12192.4
       601.50000  4.19753e-10      22230.1
       601.60000  4.19753e-10      22133.6
       601.70000  4.19753e-10      22053.8
       601.80000  4.19753e-10      21982.4
       601.90000  4.19753e-10      21927.9
       602.00000  4.19753e-10      21885.9
       602.10000  4.19753e-10      21852.3
       602.20000  4.19753e-10      21835.5
       602.30000  4.19753e-10      21831.3
       602.40000  4.19753e-10      21839.7
       602.50000  2.35062e-10      12239.7
       602.60000  2.35062e-10      12258.5
       602.70000  2.35062e-10      12284.3
       602.80000  2.35062e-10      12317.2
       602.90000  2.35062e-10      12357.2
       603.00000  2.35062e-10      12404.2
       603.10000  2.35062e-10      12458.3
       603.20000  2.35062e-10      12519.4
       603.30000  2.35062e-10      12587.6
       603.40000  2.35062e-10      12662.8
       603.50000  1.93781e-10      10506.8
       603.60000  1.93781e-10      10502.9
       603.70000  1.93781e-10      10499.1
       603.80000  1.93881e-10      10500.6
       603.90000  1.93881e-10      10494.8
       604.00000  1.93881e-10      10490.9
       604.10000  1.93881e-10      10485.1
       604.20000  1.93881e-10      10481.2
       604.30000  1.93881e-10      10475.4
       604.40000  1.93881e-10      10471.5
       604.50000  1.69199e-10      9133.38
       604.60000  1.69199e-10      9126.61
       604.70000  1.69199e-10      9119.85
       604.80000  1.69199e-10      9113.08
       604.90000  1.69199e-10      9106.31
       605.00000  1.69199e-10      9101.23
       605.10000  1.69199e-10      9096.16
       605.20000  1.69199e-10      9092.77
       605.30000  1.69199e-10      9087.70
       605.40000  1.69199e-10      9084.31
       605.50000  1.88404e-10      10111.6
       605.60000  1.88404e-10      10109.7
       605.70000  1.88404e-10      10106.0
       605.80000  1.88404e-10      10104.1
       605.90000  1.88404e-10      10104.1
       606.00000  1.88404e-10      10102.2
       606.10000  1.88404e-10      10102.2
       606.20000  1.88404e-10      10102.2
       606.30000  1.88609e-10      10113.2
       606.40000  1.88609e-10      10115.1
       606.50000  2.89579e-11      1553.30
       606.60000  2.89579e-11      1553.88
       606.70000  2.89579e-11      1554.17
       606.80000  2.89579e-11      1554.75
       606.90000  2.89579e-11      1554.75
       607.00000  2.89579e-11      1555.04
       607.10000  2.89579e-11      1555.04
       607.20000  2.89579e-11      1555.04
       607.30000  2.89579e-11      1554.75
       607.40000  2.89579e-11      1554.46
       607.50000  2.53616e-10      13611.6
       607.60000  2.53616e-10      13596.3
       607.70000  2.53616e-10      13583.7
       607.80000  2.53616e-10      13573.5
       607.90000  2.53616e-10      13563.4
       608.00000  2.53616e-10      13553.2
       608.10000  2.53616e-10      13545.6
       608.20000  2.53616e-10      13538.0
       608.30000  2.53616e-10      13532.9
       608.40000  2.53616e-10      13527.9
       608.50000  2.38845e-10      12737.6
       608.60000  2.38845e-10      12735.2
       608.70000  2.38845e-10      12732.9
       608.80000  2.38951e-10      12738.5
       608.90000  2.38951e-10      12740.8
       609.00000  2.38951e-10      12743.2
       609.10000  2.38951e-10      12745.6
       609.20000  2.38951e-10      12750.4
       609.30000  2.38951e-10      12755.2
       609.40000  2.38951e-10      12762.3
       609.50000  8.50774e-12      454.739
       609.60000  8.50774e-12      452.697
       609.70000  8.50774e-12      450.910
       609.80000  8.50774e-12      449.379
       609.90000  8.50774e-12      448.103
       610.00000  8.50774e-12      446.996
       610.10000  8.50774e-12      446.061
       610.20000  8.50774e-12      445.380
       610.30000  8.50774e-12      444.955
       610.40000  8.50774e-12      444.784
       610.50000  4.95338e-11      2589.13
       610.60000  4.95338e-11      2602.01
       610.70000  4.95338e-11      2613.40
       610.80000  4.95338e-11      2623.80
       610.90000  4.95338e-11      2632.72
       611.00000  4.95338e-11      2640.15
       611.10000  4.95338e-11      2646.59
       611.20000  4.95338e-11      2651.54
       611.30000  4.95531e-11      2656.54
       611.40000  4.95531e-11      2659.02
       611.50000  1.80502e-10      9689.33
       611.60000  1.80502e-10      9689.33
       611.70000  1.80502e-10      9683.91
       611.80000  1.80502e-10      9674.89
       611.90000  1.80502e-10      9660.45
       612.00000  1.80502e-10      9642.40
       612.10000  1.80502e-10      9618.93
       612.20000  1.80502e-10      9590.05
       612.30000  1.80502e-10      9557.56
       612.40000  1.80502e-10      9519.66
       612.50000  1.90544e-10      10005.5
       612.60000  1.90544e-10      9980.70
       612.70000  1.90544e-10      9957.84
       612.80000  1.90544e-10      9938.78
       612.90000  1.90544e-10      9923.54
       613.00000  1.90544e-10      9910.20
       613.10000  1.90544e-10      9900.67
       613.20000  1.90544e-10      9893.05
       613.30000  1.90544e-10      9889.24
       613.40000  1.90544e-10      9889.24
       613.50000  2.22398e-10      11544.7
       613.60000  2.22398e-10      11578.1
       613.70000  2.22398e-10      11607.0
       613.80000  2.22352e-10      11631.2
       613.90000  2.22352e-10      11657.9
       614.00000  2.22352e-10      11682.4
       614.10000  2.22352e-10      11702.4
       614.20000  2.22352e-10      11722.4
       614.30000  2.22352e-10      11740.2
       614.40000  2.22352e-10      11755.7
       614.50000  3.08485e-11      1632.81
       614.60000  3.08485e-11      1634.35
       614.70000  3.08485e-11      1635.59
       614.80000  3.08485e-11      1636.51
       614.90000  3.08485e-11      1637.13
       615.00000  3.08485e-11      1637.44
       615.10000  3.08485e-11      1637.74
       615.20000  3.08485e-11      1637.44
       615.30000  3.08485e-11      1637.13
       615.40000  3.08485e-11      1636.51
       615.50000  1.53140e-10      8117.95
       615.60000  1.53140e-10      8027.60
       615.70000  1.53140e-10      7944.90
       615.80000  1.53140e-10      7872.93
       615.90000  1.53140e-10      7811.67
       616.00000  1.53140e-10      7758.07
       616.10000  1.53140e-10      7715.19
       616.20000  1.53140e-10      7681.50
       616.30000  1.53379e-10      7668.95
       616.40000  1.53379e-10      7655.15
       616.50000  1.11675e-10      5569.23
       616.60000  1.11675e-10      5617.25
       616.70000  1.11675e-10      5661.92
       616.80000  1.11675e-10      5703.24
       616.90000  1.11675e-10      5742.32
       617.00000  1.11675e-10      5779.18
       617.10000  1.11675e-10      5812.68
       617.20000  1.11675e-10      5842.83
       617.30000  1.11675e-10      5870.75
       617.40000  1.11675e-10      5896.44
       617.50000  1.97988e-10      10493.4
       617.60000  1.97988e-10      10527.0
       617.70000  1.97988e-10      10556.7
       617.80000  1.97988e-10      10582.5
       617.90000  1.97988e-10      10600.3
       618.00000  1.97988e-10      10616.1
       618.10000  1.97988e-10      10626.0
       618.20000  1.97988e-10      10630.0
       618.30000  1.97988e-10      10630.0
       618.40000  1.97988e-10      10624.0
       618.50000  8.02734e-11      4303.46
       618.60000  8.02734e-11      4295.43
       618.70000  8.02734e-11      4287.40
       618.80000  8.03547e-11      4286.12
       618.90000  8.03547e-11      4280.50
       619.00000  8.03547e-11      4276.48
       619.10000  8.03547e-11      4273.27
       619.20000  8.03547e-11      4271.66
       619.30000  8.03547e-11      4270.85
       619.40000  8.03547e-11      4270.85
       619.50000  2.83374e-10      15067.0
       619.60000  2.83374e-10      15120.8
       619.70000  2.83374e-10      15169.0
       619.80000  2.83374e-10      15211.5
       619.90000  2.83374e-10      15248.4
       620.00000  2.83374e-10      15276.7
       620.10000  2.83374e-10      15299.4
       620.20000  2.83374e-10      15316.4
       620.30000  2.83374e-10      15327.7
       620.40000  2.83374e-10      15330.5
       620.50000  3.97660e-11      2151.34
       620.60000  3.97660e-11      2142.59
       620.70000  3.97660e-11      2134.24
       620.80000  3.97660e-11      2127.08
       620.90000  3.97660e-11      2120.72
       621.00000  3.97660e-11      2115.15
       621.10000  3.97660e-11      2110.38
       621.20000  3.97660e-11      2106.80
       621.30000  3.97798e-11      2104.35
       621.40000  3.97798e-11      2101.97
       621.50000  1.01404e-10      5355.15
       621.60000  1.01404e-10      5373.41
       621.70000  1.01404e-10      5389.63
       621.80000  1.01404e-10      5402.81
       621.90000  1.01404e-10      5414.98
       622.00000  1.01404e-10      5424.11
       622.10000  1.01404e-10      5431.21
       622.20000  1.01404e-10      5435.26
       622.30000  1.01404e-10      5438.30
       622.40000  1.01404e-10      5438.30
       622.50000  8.49630e-11      4554.87
       622.60000  8.49630e-11      4551.47
       622.70000  8.49630e-11      4546.37
       622.80000  8.49630e-11      4539.57
       622.90000  8.49630e-11      4530.23
       623.00000  8.49630e-11      4520.03
       623.10000  8.49630e-11      4507.29
       623.20000  8.49630e-11      4492.00
       623.30000  8.49630e-11      4475.85
       623.40000  8.49630e-11      4457.16
       623.50000  4.67055e-11      2439.43
       623.60000  4.67055e-11      2438.96
       623.70000  4.67055e-11      2438.96
       623.80000  4.66833e-11      2436.87
       623.90000  4.66833e-11      2436.40
       624.00000  4.66833e-11      2435.47
       624.10000  4.66833e-11      2434.07
       624.20000  4.66833e-11      2432.67
       624.30000  4.66833e-11      2431.27
       624.40000  4.66833e-11      2429.40
       624.50000  9.49220e-11      4935.95
       624.60000  9.49220e-11      4916.96
       624.70000  9.49220e-11      4901.77
       624.80000  9.49220e-11      4888.48
       624.90000  9.49220e-11      4878.04
       625.00000  9.49220e-11      4870.45
       625.10000  9.49220e-11      4865.70
       625.20000  9.49220e-11      4862.86
       625.30000  9.49220e-11      4863.80
       625.40000  9.49220e-11      4866.65
       625.50000  7.53869e-11      3869.61
       625.60000  7.53869e-11      3875.64
       625.70000  7.53869e-11      3884.69
       625.80000  7.53869e-11      3895.24
       625.90000  7.53869e-11      3908.06
       626.00000  7.53869e-11      3923.14
       626.10000  7.53869e-11      3940.47
       626.20000  7.53869e-11      3959.32
       626.30000  7.53001e-11      3976.60
       626.40000  7.53001e-11      3999.94
       626.50000  1.40573e-10      7513.64
       626.60000  1.40573e-10      7515.04
       626.70000  1.40573e-10      7516.45
       626.80000  1.40573e-10      7517.85
       626.90000  1.40573e-10      7519.26
       627.00000  1.40573e-10      7520.67
       627.10000  1.40573e-10      7522.07
       627.20000  1.40573e-10      7522.07
       627.30000  1.40573e-10      7523.48
       627.40000  1.40573e-10      7524.88
       627.50000  1.00919e-10      5403.22
       627.60000  1.00919e-10      5407.26
       627.70000  1.00919e-10      5410.29
       627.80000  1.00919e-10      5412.31
       627.90000  1.00919e-10      5414.33
       628.00000  1.00919e-10      5415.33
       628.10000  1.00919e-10      5416.34
       628.20000  1.00919e-10      5416.34
       628.30000  1.00919e-10      5415.33
       628.40000  1.00919e-10      5414.33
       628.50000  1.51314e-10      8114.99
       628.60000  1.51314e-10      8110.45
       628.70000  1.51314e-10      8105.91
       628.80000  1.50975e-10      8081.71
       628.90000  1.50975e-10      8074.16
       629.00000  1.50975e-10      8066.61
       629.10000  1.50975e-10      8057.55
       629.20000  1.50975e-10      8048.49
       629.30000  1.50975e-10      8037.93
       629.40000  1.50975e-10      8025.85
       629.50000  9.47201e-12      502.774
       629.60000  9.47201e-12      501.732
       629.70000  9.47201e-12      500.690
       629.80000  9.47201e-12      499.743
       629.90000  9.47201e-12      498.891
       630.00000  9.47201e-12      498.038
       630.10000  9.47201e-12      497.186
       630.20000  9.47201e-12      496.523
       630.30000  9.47201e-12      495.765
       630.40000  9.47201e-12      495.197
       630.50000  1.69316e-11      884.167
       630.60000  1.69316e-11      883.151
       630.70000  1.69316e-11      882.305
       630.80000  1.69316e-11      881.627
       630.90000  1.69316e-11      880.950
       631.00000  1.69316e-11      880.442
       631.10000  1.69316e-11      880.950
       631.20000  1.69316e-11      881.458
       631.30000  1.68856e-11      879.740
       631.40000  1.68856e-11      880.247
       631.50000  1.31040e-10      6835.05
       631.60000  1.31040e-10      6838.98
       631.70000  1.31040e-10      6842.91
       631.80000  1.31040e-10      6845.53
       631.90000  1.31040e-10      6849.46
       632.00000  1.31040e-10      6853.40
       632.10000  1.31040e-10      6857.33
       632.20000  1.31040e-10      6859.95
       632.30000  1.31040e-10      6863.88
       632.40000  1.31040e-10      6867.81
       632.50000  2.24023e-10      11745.5
       632.60000  2.24023e-10      11750.0
       632.70000  2.24023e-10      11756.7
       632.80000  2.24023e-10      11761.2
       632.90000  2.24023e-10      11765.7
       633.00000  2.24023e-10      11772.4
       633.10000  2.24023e-10      11776.9
       633.20000  2.24023e-10      11781.4
       633.30000  2.24023e-10      11785.9
       633.40000  2.24023e-10      11790.4
       633.50000  1.48354e-10      7810.83
       633.60000  1.48354e-10      7813.80
       633.70000  1.48354e-10      7816.77
       633.80000  1.47957e-10      7797.32
       633.90000  1.47957e-10      7800.28
       634.00000  1.47957e-10      7803.24
       634.10000  1.47957e-10      7804.72
       634.20000  1.47957e-10      7807.68
       634.30000  1.47957e-10      7809.16
       634.40000  1.47957e-10      7812.12
       634.50000  1.43970e-10      7603.06
       634.60000  1.43970e-10      7604.50
       634.70000  1.43970e-10      7607.38
       634.80000  1.43970e-10      7608.82
       634.90000  1.43970e-10      7610.26
       635.00000  1.43970e-10      7611.70
       635.10000  1.43970e-10      7613.14
       635.20000  1.43970e-10      7613.14
       635.30000  1.43970e-10      7614.58
       635.40000  1.43970e-10      7614.58
       635.50000  1.44933e-10      7666.94
       635.60000  1.44933e-10      7668.39
       635.70000  1.44933e-10      7668.39
       635.80000  1.44933e-10      7669.84
       635.90000  1.44933e-10      7669.84
       636.00000  1.44933e-10      7671.29
       636.10000  1.44933e-10      7671.29
       636.20000  1.44933e-10      7672.74
       636.30000  1.44410e-10      7645.07
       636.40000  1.44410e-10      7646.51
       636.50000  7.74080e-11      4098.75
       636.60000  7.74080e-11      4099.53
       636.70000  7.74080e-11      4099.53
       636.80000  7.74080e-11      4100.30
       636.90000  7.74080e-11      4100.30
       637.00000  7.74080e-11      4100.30
       637.10000  7.74080e-11      4101.08
       637.20000  7.74080e-11      4101.08
       637.30000  7.74080e-11      4101.85
       637.40000  7.74080e-11      4101.85
       637.50000  8.55814e-11      4534.96
       637.60000  8.55814e-11      4535.81
       637.70000  8.55814e-11      4535.81
       637.80000  8.55814e-11      4536.67
       637.90000  8.55814e-11      4536.67
       638.00000  8.55814e-11      4536.67
       638.10000  8.55814e-11      4537.52
       638.20000  8.55814e-11      4537.52
       638.30000  8.55814e-11      4537.52
       638.40000  8.55814e-11      4538.38
       638.50000  1.41948e-10      7527.48
       638.60000  1.41948e-10      7527.48
       638.70000  1.41948e-10      7528.90
       638.80000  1.41548e-10      7507.69
       638.90000  1.41548e-10      7507.69
       639.00000  1.41548e-10      7507.69
       639.10000  1.41548e-10      7496.36
       639.20000  1.41548e-10      7485.04
       639.30000  1.41548e-10      7473.71
       639.40000  1.41548e-10      7463.81
       639.50000  9.50165e-11      5002.62
       639.60000  9.50165e-11      4996.92
       639.70000  9.50165e-11      4990.26
       639.80000  9.50165e-11      4984.56
       639.90000  9.50165e-11      4979.81
       640.00000  9.50165e-11      4974.11
       640.10000  9.50165e-11      4969.36
       640.20000  9.50165e-11      4965.56
       640.30000  9.50165e-11      4961.76
       640.40000  9.50165e-11      4957.96
       640.50000  1.00427e-10      5236.24
       640.60000  1.00427e-10      5233.23
       640.70000  1.00427e-10      5230.21
       640.80000  1.00427e-10      5228.20
       640.90000  1.00427e-10      5225.19
       641.00000  1.00427e-10      5224.19
       641.10000  1.00427e-10      5226.20
       641.20000  1.00427e-10      5228.20
       641.30000  1.00111e-10      5213.76
       641.40000  1.00111e-10      5215.77
       641.50000  3.81794e-11      1989.91
       641.60000  3.81794e-11      1990.67
       641.70000  3.81794e-11      1991.44
       641.80000  3.81794e-11      1992.20
       641.90000  3.81794e-11      1992.96
       642.00000  3.81794e-11      1993.73
       642.10000  3.81794e-11      1994.11
       642.20000  3.81794e-11      1994.87
       642.30000  3.81794e-11      1995.64
       642.40000  3.81794e-11      1996.40
       642.50000  5.31905e-11      2782.40
       642.60000  5.31905e-11      2783.46
       642.70000  5.31905e-11      2784.52
       642.80000  5.31905e-11      2785.59
       642.90000  5.31905e-11      2786.65
       643.00000  5.31905e-11      2787.72
       643.10000  5.31905e-11      2788.25
       643.20000  5.31905e-11      2789.31
       643.30000  5.31905e-11      2790.38
       643.40000  5.31905e-11      2791.44
       643.50000  8.18938e-11      4299.43
       643.60000  8.18938e-11      4301.06
       643.70000  8.18938e-11      4301.88
       643.80000  8.15876e-11      4287.43
