PDS_VERSION_ID         = PDS3
RECORD_TYPE            = STREAM
OBJECT                 = TEXT
  PUBLICATION_DATE     = 2014-04-25
  INTERCHANGE_FORMAT   = ASCII
  NOTE                 = "System transmission vs. wavelength."
END_OBJECT             = TEXT
END
    
The systrans directory contains the non-wavelength-integrated system 
transmission values (QE*optics*filter1*filter2) for each filter combination. 
The naming convention for these files is as follows:

<camera><filter 1><filter 2>_systrans.tab

where <camera> is "issna" or "isswa," and <filter 1> and <filter 2> represent
the filter names. For polarized filter combinations, values are given for the
parallel orientation of the filter (full transmission), with values for the 
perpendicular (blocking) orientation provided in files with subscript 
"_b_systrans.tab". 

Columns in systrans files are as follows:

 1st column: Wavelength (nm)  
 2nd column: Transmitted Flux
 3rd column: Transmitted Flux * Solar Flux (phot per cm^2-s-angstrom at 1 AU)

The solar spectrum used for this calculation is provided in solarflux.tab.

\begindata
       659.00000  5.62026e-12      288.432
       659.10000  5.62026e-12      289.331
       659.20000  5.62026e-12      290.174
       659.30000  5.62026e-12      290.905
       659.40000  5.62026e-12      291.579
       659.50000  9.88893e-13      51.4125
       659.60000  9.88893e-13      51.5114
       659.70000  9.88893e-13      51.5905
       659.80000  9.88893e-13      51.6696
       659.90000  9.88893e-13      51.7290
       660.00000  9.88893e-13      51.7784
       660.10000  9.88893e-13      51.8180
       660.20000  9.88893e-13      51.8378
       660.30000  9.88893e-13      51.8575
       660.40000  9.88893e-13      51.8575
       660.50000  4.66232e-12      244.446
       660.60000  4.66232e-12      244.352
       660.70000  4.66232e-12      244.212
       660.80000  4.66232e-12      243.979
       660.90000  4.66232e-12      243.746
       661.00000  4.66232e-12      243.420
       661.10000  4.66232e-12      243.280
       661.20000  4.66232e-12      243.093
       661.30000  4.62819e-12      241.175
       661.40000  4.62819e-12      241.036
       661.50000  3.74221e-12      194.782
       661.60000  3.74221e-12      194.707
       661.70000  3.74221e-12      194.595
       661.80000  3.74221e-12      194.520
       661.90000  3.74221e-12      194.445
       662.00000  3.74221e-12      194.370
       662.10000  3.74221e-12      194.296
       662.20000  3.74221e-12      194.221
       662.30000  3.74221e-12      194.183
       662.40000  3.74221e-12      194.146
       662.50000  4.89122e-13      25.3659
       662.60000  4.89122e-13      25.3659
       662.70000  4.89122e-13      25.3610
       662.80000  4.89122e-13      25.3561
       662.90000  4.89122e-13      25.3561
       663.00000  4.89122e-13      25.3561
       663.10000  4.89122e-13      25.3756
       663.20000  4.89122e-13      25.3903
       663.30000  4.89122e-13      25.4099
       663.40000  4.89122e-13      25.4246
       663.50000  3.18394e-12      165.597
       663.60000  3.18394e-12      165.692
       663.70000  3.18394e-12      165.756
       663.80000  3.15776e-12      164.488
       663.90000  3.15776e-12      164.551
       664.00000  3.15776e-12      164.582
       664.10000  3.15776e-12      164.646
       664.20000  3.15776e-12      164.677
       664.30000  3.15776e-12      164.709
       664.40000  3.15776e-12      164.740
       664.50000  1.80991e-12      94.4228
       664.60000  1.80991e-12      94.4228
       664.70000  1.80991e-12      94.4228
       664.80000  1.80991e-12      94.4228
       664.90000  1.80991e-12      94.4228
       665.00000  1.80991e-12      94.4047
       665.10000  1.80991e-12      94.3866
       665.20000  1.80991e-12      94.3685
       665.30000  1.80991e-12      94.3323
       665.40000  1.80991e-12      94.2961
       665.50000  7.64418e-13      39.8109
       665.60000  7.64418e-13      39.7956
       665.70000  7.64418e-13      39.7727
       665.80000  7.64418e-13      39.7574
       665.90000  7.64418e-13      39.7345
       666.00000  7.64418e-13      39.7039
       666.10000  7.64418e-13      39.6809
       666.20000  7.64418e-13      39.6504
       666.30000  7.59477e-13      39.3637
       666.40000  7.59477e-13      39.3333
       666.50000  3.89959e-12      201.765
       666.60000  3.89959e-12      201.570
       666.70000  3.89959e-12      201.375
       666.80000  3.89959e-12      201.180
       666.90000  3.89959e-12      200.985
       667.00000  3.89959e-12      200.751
       667.10000  3.89959e-12      200.985
       667.20000  3.89959e-12      201.180
       667.30000  3.89959e-12      201.375
       667.40000  3.89959e-12      201.570
       667.50000  7.59426e-12      392.927
       667.60000  7.59426e-12      393.231
       667.70000  7.59426e-12      393.535
       667.80000  7.59426e-12      393.762
       667.90000  7.59426e-12      393.990
       668.00000  7.59426e-12      394.218
       668.10000  7.59426e-12      394.446
       668.20000  7.59426e-12      394.598
       668.30000  7.59426e-12      394.750
       668.40000  7.59426e-12      394.826
       668.50000  4.02508e-12      209.304
       668.60000  4.02508e-12      209.344
       668.70000  4.02508e-12      209.344
       668.80000  4.00199e-12      208.143
       668.90000  4.00199e-12      208.143
       669.00000  4.00199e-12      208.103
       669.10000  4.00199e-12      207.823
       669.20000  4.00199e-12      207.543
       669.30000  4.00199e-12      207.303
       669.40000  4.00199e-12      207.063
       669.50000  5.45264e-12      281.792
       669.60000  5.45264e-12      281.465
       669.70000  5.45264e-12      281.193
       669.80000  5.45264e-12      280.920
       669.90000  5.45264e-12      280.647
       670.00000  5.45264e-12      280.429
       670.10000  5.45264e-12      280.211
       670.20000  5.45264e-12      279.993
       670.30000  5.45264e-12      279.775
       670.40000  5.45264e-12      279.611
       670.50000  2.92905e-13      15.0114
       670.60000  2.92905e-13      15.0026
       670.70000  2.92905e-13      14.9967
       670.80000  2.92905e-13      14.9909
       670.90000  2.92905e-13      14.9850
       671.00000  2.92905e-13      14.9821
       671.10000  2.92905e-13      14.9762
       671.20000  2.92905e-13      14.9762
       671.30000  2.91246e-13      14.8885
       671.40000  2.91246e-13      14.8885
       671.50000  8.16459e-13      41.7374
       671.60000  8.16459e-13      41.7374
       671.70000  8.16459e-13      41.7374
       671.80000  8.16459e-13      41.7456
       671.90000  8.16459e-13      41.7537
       672.00000  8.16459e-13      41.7701
       672.10000  8.16459e-13      41.7864
       672.20000  8.16459e-13      41.8027
       672.30000  8.16459e-13      41.8190
       672.40000  8.16459e-13      41.8435
       672.50000  3.33256e-13      17.0893
       672.60000  3.33256e-13      17.0993
       672.70000  3.33256e-13      17.1093
       672.80000  3.33256e-13      17.1227
       672.90000  3.33256e-13      17.1360
       673.00000  3.33256e-13      17.1527
       673.10000  3.33256e-13      17.1460
       673.20000  3.33256e-13      17.1393
       673.30000  3.33256e-13      17.1327
       673.40000  3.33256e-13      17.1293
       673.50000  1.15802e-11      594.991
       673.60000  1.15802e-11      594.875
       673.70000  1.15802e-11      594.759
       673.80000  1.15082e-11      590.829
       673.90000  1.15082e-11      590.714
       674.00000  1.15082e-11      590.599
       674.10000  1.15082e-11      590.483
       674.20000  1.15082e-11      590.368
       674.30000  1.15082e-11      590.253
       674.40000  1.15082e-11      590.138
       674.50000  2.54030e-12      130.241
       674.60000  2.54030e-12      130.241
       674.70000  2.54030e-12      130.216
       674.80000  2.54030e-12      130.216
       674.90000  2.54030e-12      130.191
       675.00000  2.54030e-12      130.191
       675.10000  2.54030e-12      130.216
       675.20000  2.54030e-12      130.241
       675.30000  2.54030e-12      130.267
       675.40000  2.54030e-12      130.292
       675.50000  7.45882e-13      38.2563
       675.60000  7.45882e-13      38.2638
       675.70000  7.45882e-13      38.2712
       675.80000  7.45882e-13      38.2712
       675.90000  7.45882e-13      38.2787
       676.00000  7.45882e-13      38.2787
       676.10000  7.45882e-13      38.2861
       676.20000  7.45882e-13      38.2861
       676.30000  7.40244e-13      37.9967
       676.40000  7.40244e-13      37.9967
       676.50000  6.90470e-12      354.487
       676.60000  6.90470e-12      354.487
       676.70000  6.90470e-12      354.487
       676.80000  6.90470e-12      354.418
       676.90000  6.90470e-12      354.418
       677.00000  6.90470e-12      354.418
       677.10000  6.90470e-12      354.418
       677.20000  6.90470e-12      354.349
       677.30000  6.90470e-12      354.349
       677.40000  6.90470e-12      354.280
       677.50000  1.74589e-12      89.5816
       677.60000  1.74589e-12      89.5642
       677.70000  1.74589e-12      89.5642
       677.80000  1.74589e-12      89.5467
       677.90000  1.74589e-12      89.5293
       678.00000  1.74589e-12      89.5118
       678.10000  1.74589e-12      89.4944
       678.20000  1.74589e-12      89.4769
       678.30000  1.74589e-12      89.4594
       678.40000  1.74589e-12      89.4420
       678.50000  1.14248e-12      58.5066
       678.60000  1.14248e-12      58.4952
       678.70000  1.14248e-12      58.4838
       678.80000  1.13387e-12      58.0203
       678.90000  1.13387e-12      58.0090
       679.00000  1.13387e-12      57.9863
       679.10000  1.13387e-12      57.9863
       679.20000  1.13387e-12      57.9977
       679.30000  1.13387e-12      57.9977
       679.40000  1.13387e-12      57.9977
       679.50000  1.30269e-12      66.6324
       679.60000  1.30269e-12      66.6324
       679.70000  1.30269e-12      66.6324
       679.80000  1.30269e-12      66.6324
       679.90000  1.30269e-12      66.6324
       680.00000  1.30269e-12      66.6194
       680.10000  1.30269e-12      66.6194
       680.20000  1.30269e-12      66.6194
       680.30000  1.30269e-12      66.6063
       680.40000  1.30269e-12      66.6063
       680.50000  6.97809e-13      35.6720
       680.60000  6.97809e-13      35.6720
       680.70000  6.97809e-13      35.6650
       680.80000  6.97809e-13      35.6580
       680.90000  6.97809e-13      35.6510
       681.00000  6.97809e-13      35.6510
       681.10000  6.97809e-13      35.6441
       681.20000  6.97809e-13      35.6371
       681.30000  6.91917e-13      35.3362
       681.40000  6.91917e-13      35.3293
       681.50000  9.29949e-12      474.739
       681.60000  9.29949e-12      474.646
       681.70000  9.29949e-12      474.553
       681.80000  9.29949e-12      474.367
       681.90000  9.29949e-12      474.274
       682.00000  9.29949e-12      474.181
       682.10000  9.29949e-12      473.995
       682.20000  9.29949e-12      473.809
       682.30000  9.29949e-12      473.716
       682.40000  9.29949e-12      473.530
       682.50000  9.77723e-13      49.7661
       682.60000  9.77723e-13      49.7466
       682.70000  9.77723e-13      49.7270
       682.80000  9.77723e-13      49.7075
       682.90000  9.77723e-13      49.6781
       683.00000  9.77723e-13      49.6586
       683.10000  9.77723e-13      49.6390
       683.20000  9.77723e-13      49.6097
       683.30000  9.77723e-13      49.5803
       683.40000  9.77723e-13      49.5510
       683.50000  6.81202e-12      345.097
       683.60000  6.81202e-12      344.893
       683.70000  6.81202e-12      344.688
       683.80000  6.74734e-12      341.146
       683.90000  6.74734e-12      340.943
       684.00000  6.74734e-12      340.741
       684.10000  6.74734e-12      340.471
       684.20000  6.74734e-12      340.268
       684.30000  6.74734e-12      339.999
       684.40000  6.74734e-12      339.796
       684.50000  4.81221e-13      24.2151
       684.60000  4.81221e-13      24.1958
       684.70000  4.81221e-13      24.1766
       684.80000  4.81221e-13      24.1573
       684.90000  4.81221e-13      24.1332
       685.00000  4.81221e-13      24.1140
       685.10000  4.81221e-13      24.1332
       685.20000  4.81221e-13      24.1573
       685.30000  4.81221e-13      24.1766
       685.40000  4.81221e-13      24.1910
       685.50000  1.60117e-12      80.5547
       685.60000  1.60117e-12      80.6188
       685.70000  1.60117e-12      80.6668
       685.80000  1.60117e-12      80.7149
       685.90000  1.60117e-12      80.7629
       686.00000  1.60117e-12      80.8109
       686.10000  1.60117e-12      80.8590
       686.20000  1.60117e-12      80.8910
       686.30000  1.58605e-12      80.1746
       686.40000  1.58605e-12      80.2063
       686.50000  7.51399e-12      380.133
       686.60000  7.51399e-12      380.283
       686.70000  7.51399e-12      380.433
       686.80000  7.51399e-12      380.509
       686.90000  7.51399e-12      380.659
       687.00000  7.51399e-12      380.734
       687.10000  7.51399e-12      380.809
       687.20000  7.51399e-12      380.809
       687.30000  7.51399e-12      380.809
       687.40000  7.51399e-12      380.809
       687.50000  2.19672e-12      111.330
       687.60000  2.19672e-12      111.330
       687.70000  2.19672e-12      111.330
       687.80000  2.19672e-12      111.330
       687.90000  2.19672e-12      111.330
       688.00000  2.19672e-12      111.308
       688.10000  2.19672e-12      111.308
       688.20000  2.19672e-12      111.308
       688.30000  2.19672e-12      111.286
       688.40000  2.19672e-12      111.286
       688.50000  9.08856e-13      46.0336
       688.60000  9.08856e-13      46.0245
       688.70000  9.08856e-13      46.0245
       688.80000  9.01395e-13      45.6376
       688.90000  9.01395e-13      45.6286
       689.00000  9.01395e-13      45.6196
       689.10000  9.01395e-13      45.6106
       689.20000  9.01395e-13      45.6016
       689.30000  9.01395e-13      45.5925
       689.40000  9.01395e-13      45.5835
       689.50000  2.82733e-12      142.950
       689.60000  2.82733e-12      142.921
       689.70000  2.82733e-12      142.865
       689.80000  2.82733e-12      142.837
       689.90000  2.82733e-12      142.808
       690.00000  2.82733e-12      142.752
       690.10000  2.82733e-12      142.695
       690.20000  2.82733e-12      142.667
       690.30000  2.82733e-12      142.610
       690.40000  2.82733e-12      142.554
       690.50000  4.50874e-12      227.286
       690.60000  4.50874e-12      227.195
       690.70000  4.50874e-12      227.105
       690.80000  4.50874e-12      227.015
       690.90000  4.50874e-12      226.925
       691.00000  4.50874e-12      226.835
       691.10000  4.50874e-12      226.925
       691.20000  4.50874e-12      226.970
       691.30000  4.47459e-12      225.340
       691.40000  4.47459e-12      225.385
       691.50000  4.55726e-12      229.595
       691.60000  4.55726e-12      229.686
       691.70000  4.55726e-12      229.732
       691.80000  4.55726e-12      229.777
       691.90000  4.55726e-12      229.823
       692.00000  4.55726e-12      229.823
       692.10000  4.55726e-12      229.868
       692.20000  4.55726e-12      229.914
       692.30000  4.55726e-12      229.914
       692.40000  4.55726e-12      229.914
       692.50000  1.33313e-12      67.2700
       692.60000  1.33313e-12      67.2700
       692.70000  1.33313e-12      67.2700
       692.80000  1.33313e-12      67.2700
       692.90000  1.33313e-12      67.2700
       693.00000  1.33313e-12      67.2566
       693.10000  1.33313e-12      67.2566
       693.20000  1.33313e-12      67.2433
       693.30000  1.33313e-12      67.2300
       693.40000  1.33313e-12      67.2167
       693.50000  3.05784e-12      154.146
       693.60000  3.05784e-12      154.115
       693.70000  3.05784e-12      154.085
       693.80000  3.03675e-12      152.991
       693.90000  3.03675e-12      152.931
       694.00000  3.03675e-12      152.900
       694.10000  3.03675e-12      152.870
       694.20000  3.03675e-12      152.809
       694.30000  3.03675e-12      152.779
       694.40000  3.03675e-12      152.718
       694.50000  1.78296e-12      89.6295
       694.60000  1.78296e-12      89.6117
       694.70000  1.78296e-12      89.5760
       694.80000  1.78296e-12      89.5404
       694.90000  1.78296e-12      89.5047
       695.00000  1.78296e-12      89.4690
       695.10000  1.78296e-12      89.4334
       695.20000  1.78296e-12      89.3977
       695.30000  1.78296e-12      89.3442
       695.40000  1.78296e-12      89.3086
       695.50000  1.11164e-12      55.6598
       695.60000  1.11164e-12      55.6265
       695.70000  1.11164e-12      55.6042
       695.80000  1.11164e-12      55.5709
       695.90000  1.11164e-12      55.5375
       696.00000  1.11164e-12      55.5153
       696.10000  1.11164e-12      55.4819
       696.20000  1.11164e-12      55.4486
       696.30000  1.10514e-12      55.0910
       696.40000  1.10514e-12      55.0578
       696.50000  2.23411e-13      11.1236
       696.60000  2.23411e-13      11.1169
       696.70000  2.23411e-13      11.1080
       696.80000  2.23411e-13      11.1013
       696.90000  2.23411e-13      11.0946
       697.00000  2.23411e-13      11.0856
       697.10000  2.23411e-13      11.1013
       697.20000  2.23411e-13      11.1125
       697.30000  2.23411e-13      11.1259
       697.40000  2.23411e-13      11.1370
       697.50000  8.34482e-13      41.6407
       697.60000  8.34482e-13      41.6740
       697.70000  8.34482e-13      41.7074
       697.80000  8.34482e-13      41.7324
       697.90000  8.34482e-13      41.7575
       698.00000  8.34482e-13      41.7742
       698.10000  8.34482e-13      41.7909
       698.20000  8.34482e-13      41.8076
       698.30000  8.34482e-13      41.8159
       698.40000  8.34482e-13      41.8242
       698.50000  8.74414e-13      43.8344
       698.60000  8.74414e-13      43.8344
       698.70000  8.74414e-13      43.8256
       698.80000  8.69053e-13      43.5482
       698.90000  8.69053e-13      43.5396
       699.00000  8.69053e-13      43.5222
       699.10000  8.69053e-13      43.4440
       699.20000  8.69053e-13      43.3571
       699.30000  8.69053e-13      43.2875
       699.40000  8.69053e-13      43.2093
       699.50000  4.04666e-13      20.0876
       699.60000  4.04666e-13      20.0552
       699.70000  4.04666e-13      20.0269
       699.80000  4.04666e-13      19.9986
       699.90000  4.04666e-13      19.9702
       700.00000  4.04666e-13      19.9460
       700.10000  4.04666e-13      19.9217
       700.20000  4.04666e-13      19.8974
       700.30000  4.04666e-13      19.8772
       700.40000  4.04666e-13      19.8569
       700.50000  3.98046e-13      19.5122
       700.60000  3.98046e-13      19.4963
       700.70000  3.98046e-13      19.4804
       700.80000  3.98046e-13      19.4684
       700.90000  3.98046e-13      19.4565
       701.00000  3.98046e-13      19.4446
       701.10000  3.98046e-13      19.4406
       701.20000  3.98046e-13      19.4366
       701.30000  3.95097e-13      19.2886
       701.40000  3.95097e-13      19.2886
       701.50000  2.54436e-13      12.4216
       701.60000  2.54436e-13      12.4216
       701.70000  2.54436e-13      12.4216
       701.80000  2.54436e-13      12.4241
       701.90000  2.54436e-13      12.4241
       702.00000  2.54436e-13      12.4266
       702.10000  2.54436e-13      12.4317
       702.20000  2.54436e-13      12.4343
       702.30000  2.54436e-13      12.4394
       702.40000  2.54436e-13      12.4419
       702.50000  9.90561e-13      48.4582
       702.60000  9.90561e-13      48.4879
       702.70000  9.90561e-13      48.5078
       702.80000  9.90561e-13      48.5375
