PDS_VERSION_ID         = PDS3
RECORD_TYPE            = STREAM
OBJECT                 = TEXT
  PUBLICATION_DATE     = 2014-04-25
  INTERCHANGE_FORMAT   = ASCII
  NOTE                 = "System transmission vs. wavelength."
END_OBJECT             = TEXT
END
    
The systrans directory contains the non-wavelength-integrated system 
transmission values (QE*optics*filter1*filter2) for each filter combination. 
The naming convention for these files is as follows:

<camera><filter 1><filter 2>_systrans.tab

where <camera> is "issna" or "isswa," and <filter 1> and <filter 2> represent
the filter names. For polarized filter combinations, values are given for the
parallel orientation of the filter (full transmission), with values for the 
perpendicular (blocking) orientation provided in files with subscript 
"_b_systrans.tab". 

Columns in systrans files are as follows:

 1st column: Wavelength (nm)  
 2nd column: Transmitted Flux
 3rd column: Transmitted Flux * Solar Flux (phot per cm^2-s-angstrom at 1 AU)

The solar spectrum used for this calculation is provided in solarflux.tab.

\begindata
       600.00000  8.86294e-11      4720.40
       600.10000  8.86294e-11      4713.31
       600.20000  8.86294e-11      4705.34
       600.30000  8.86294e-11      4695.59
       600.40000  8.86294e-11      4684.07
       600.50000  1.78126e-10      9390.80
       600.60000  1.78126e-10      9403.27
       600.70000  1.78126e-10      9413.96
       600.80000  1.78126e-10      9424.65
       600.90000  1.78126e-10      9431.77
       601.00000  1.78126e-10      9437.12
       601.10000  1.78126e-10      9438.90
       601.20000  1.78126e-10      9440.68
       601.30000  1.78035e-10      9435.86
       601.40000  1.78035e-10      9432.30
       601.50000  2.10110e-10      11127.4
       601.60000  2.10110e-10      11079.1
       601.70000  2.10110e-10      11039.2
       601.80000  2.10110e-10      11003.5
       601.90000  2.10110e-10      10976.1
       602.00000  2.10110e-10      10955.1
       602.10000  2.10110e-10      10938.3
       602.20000  2.10110e-10      10929.9
       602.30000  2.10110e-10      10927.8
       602.40000  2.10110e-10      10932.0
       602.50000  2.25042e-10      11717.9
       602.60000  2.25042e-10      11735.9
       602.70000  2.25042e-10      11760.7
       602.80000  2.25042e-10      11792.2
       602.90000  2.25042e-10      11830.4
       603.00000  2.25042e-10      11875.4
       603.10000  2.25042e-10      11927.2
       603.20000  2.25042e-10      11985.7
       603.30000  2.25042e-10      12051.0
       603.40000  2.25042e-10      12123.0
       603.50000  2.81330e-10      15253.7
       603.60000  2.81330e-10      15248.1
       603.70000  2.81330e-10      15242.5
       603.80000  2.81474e-10      15244.7
       603.90000  2.81474e-10      15236.2
       604.00000  2.81474e-10      15230.6
       604.10000  2.81474e-10      15222.1
       604.20000  2.81474e-10      15216.5
       604.30000  2.81474e-10      15208.1
       604.40000  2.81474e-10      15202.4
       604.50000  2.89010e-10      15600.7
       604.60000  2.89010e-10      15589.2
       604.70000  2.89010e-10      15577.6
       604.80000  2.89010e-10      15566.1
       604.90000  2.89010e-10      15554.5
       605.00000  2.89010e-10      15545.8
       605.10000  2.89010e-10      15537.2
       605.20000  2.89010e-10      15531.4
       605.30000  2.89010e-10      15522.7
       605.40000  2.89010e-10      15516.9
       605.50000  1.32055e-10      7087.37
       605.60000  1.32055e-10      7086.05
       605.70000  1.32055e-10      7083.41
       605.80000  1.32055e-10      7082.09
       605.90000  1.32055e-10      7082.09
       606.00000  1.32055e-10      7080.77
       606.10000  1.32055e-10      7080.77
       606.20000  1.32055e-10      7080.77
       606.30000  1.32198e-10      7088.48
       606.40000  1.32198e-10      7089.80
       606.50000  7.73404e-11      4148.54
       606.60000  7.73404e-11      4150.08
       606.70000  7.73404e-11      4150.86
       606.80000  7.73404e-11      4152.40
       606.90000  7.73404e-11      4152.40
       607.00000  7.73404e-11      4153.18
       607.10000  7.73404e-11      4153.18
       607.20000  7.73404e-11      4153.18
       607.30000  7.73404e-11      4152.40
       607.40000  7.73404e-11      4151.63
       607.50000  2.72104e-11      1460.38
       607.60000  2.72104e-11      1458.75
       607.70000  2.72104e-11      1457.39
       607.80000  2.72104e-11      1456.30
       607.90000  2.72104e-11      1455.21
       608.00000  2.72104e-11      1454.12
       608.10000  2.72104e-11      1453.31
       608.20000  2.72104e-11      1452.49
       608.30000  2.72104e-11      1451.95
       608.40000  2.72104e-11      1451.40
       608.50000  1.53756e-10      8199.82
       608.60000  1.53756e-10      8198.28
       608.70000  1.53756e-10      8196.75
       608.80000  1.53824e-10      8200.35
       608.90000  1.53824e-10      8201.89
       609.00000  1.53824e-10      8203.43
       609.10000  1.53824e-10      8204.97
       609.20000  1.53824e-10      8208.04
       609.30000  1.53824e-10      8211.12
       609.40000  1.53824e-10      8215.73
       609.50000  3.32288e-10      17760.8
       609.60000  3.32288e-10      17681.1
       609.70000  3.32288e-10      17611.3
       609.80000  3.32288e-10      17551.5
       609.90000  3.32288e-10      17501.6
       610.00000  3.32288e-10      17458.4
       610.10000  3.32288e-10      17421.9
       610.20000  3.32288e-10      17395.3
       610.30000  3.32288e-10      17378.7
       610.40000  3.32288e-10      17372.0
       610.50000  6.61476e-11      3457.53
       610.60000  6.61476e-11      3474.73
       610.70000  6.61476e-11      3489.94
       610.80000  6.61476e-11      3503.84
       610.90000  6.61476e-11      3515.74
       611.00000  6.61476e-11      3525.66
       611.10000  6.61476e-11      3534.26
       611.20000  6.61476e-11      3540.88
       611.30000  6.61733e-11      3547.55
       611.40000  6.61733e-11      3550.86
       611.50000  4.10848e-11      2205.43
       611.60000  4.10848e-11      2205.43
       611.70000  4.10848e-11      2204.20
       611.80000  4.10848e-11      2202.15
       611.90000  4.10848e-11      2198.86
       612.00000  4.10848e-11      2194.75
       612.10000  4.10848e-11      2189.41
       612.20000  4.10848e-11      2182.84
       612.30000  4.10848e-11      2175.44
       612.40000  4.10848e-11      2166.81
       612.50000  2.70296e-10      14193.3
       612.60000  2.70296e-10      14158.1
       612.70000  2.70296e-10      14125.7
       612.80000  2.70296e-10      14098.7
       612.90000  2.70296e-10      14077.0
       613.00000  2.70296e-10      14058.1
       613.10000  2.70296e-10      14044.6
       613.20000  2.70296e-10      14033.8
       613.30000  2.70296e-10      14028.4
       613.40000  2.70296e-10      14028.4
       613.50000  3.10225e-10      16103.8
       613.60000  3.10225e-10      16150.3
       613.70000  3.10225e-10      16190.6
       613.80000  3.10160e-10      16224.5
       613.90000  3.10160e-10      16261.7
       614.00000  3.10160e-10      16295.8
       614.10000  3.10160e-10      16323.7
       614.20000  3.10160e-10      16351.6
       614.30000  3.10160e-10      16376.4
       614.40000  3.10160e-10      16398.1
       614.50000  2.16182e-10      11442.5
       614.60000  2.16182e-10      11453.3
       614.70000  2.16182e-10      11462.0
       614.80000  2.16182e-10      11468.4
       614.90000  2.16182e-10      11472.8
       615.00000  2.16182e-10      11474.9
       615.10000  2.16182e-10      11477.1
       615.20000  2.16182e-10      11474.9
       615.30000  2.16182e-10      11472.8
       615.40000  2.16182e-10      11468.4
       615.50000  3.21335e-10      17034.0
       615.60000  3.21335e-10      16844.4
       615.70000  3.21335e-10      16670.9
       615.80000  3.21335e-10      16519.8
       615.90000  3.21335e-10      16391.3
       616.00000  3.21335e-10      16278.8
       616.10000  3.21335e-10      16188.9
       616.20000  3.21335e-10      16118.2
       616.30000  3.21837e-10      16091.9
       616.40000  3.21837e-10      16062.9
       616.50000  3.72710e-11      1858.70
       616.60000  3.72710e-11      1874.73
       616.70000  3.72710e-11      1889.64
       616.80000  3.72710e-11      1903.43
       616.90000  3.72710e-11      1916.47
       617.00000  3.72710e-11      1928.77
       617.10000  3.72710e-11      1939.95
       617.20000  3.72710e-11      1950.02
       617.30000  3.72710e-11      1959.33
       617.40000  3.72710e-11      1967.91
       617.50000  8.49877e-11      4504.35
       617.60000  8.49877e-11      4518.80
       617.70000  8.49877e-11      4531.55
       617.80000  8.49877e-11      4542.59
       617.90000  8.49877e-11      4550.24
       618.00000  8.49877e-11      4557.04
       618.10000  8.49877e-11      4561.29
       618.20000  8.49877e-11      4562.99
       618.30000  8.49877e-11      4562.99
       618.40000  8.49877e-11      4560.44
       618.50000  1.33976e-10      7182.44
       618.60000  1.33976e-10      7169.05
       618.70000  1.33976e-10      7155.65
       618.80000  1.34112e-10      7153.51
       618.90000  1.34112e-10      7144.13
       619.00000  1.34112e-10      7137.42
       619.10000  1.34112e-10      7132.06
       619.20000  1.34112e-10      7129.38
       619.30000  1.34112e-10      7128.03
       619.40000  1.34112e-10      7128.03
       619.50000  1.41927e-10      7546.29
       619.60000  1.41927e-10      7573.25
       619.70000  1.41927e-10      7597.38
       619.80000  1.41927e-10      7618.67
       619.90000  1.41927e-10      7637.12
       620.00000  1.41927e-10      7651.31
       620.10000  1.41927e-10      7662.67
       620.20000  1.41927e-10      7671.18
       620.30000  1.41927e-10      7676.86
       620.40000  1.41927e-10      7678.28
       620.50000  2.32333e-10      12569.2
       620.60000  2.32333e-10      12518.1
       620.70000  2.32333e-10      12469.3
       620.80000  2.32333e-10      12427.5
       620.90000  2.32333e-10      12390.3
       621.00000  2.32333e-10      12357.8
       621.10000  2.32333e-10      12329.9
       621.20000  2.32333e-10      12309.0
       621.30000  2.32414e-10      12294.7
       621.40000  2.32414e-10      12280.7
       621.50000  2.60312e-10      13747.1
       621.60000  2.60312e-10      13793.9
       621.70000  2.60312e-10      13835.6
       621.80000  2.60312e-10      13869.4
       621.90000  2.60312e-10      13900.7
       622.00000  2.60312e-10      13924.1
       622.10000  2.60312e-10      13942.3
       622.20000  2.60312e-10      13952.7
       622.30000  2.60312e-10      13960.5
       622.40000  2.60312e-10      13960.5
       622.50000  7.89932e-11      4234.82
       622.60000  7.89932e-11      4231.66
       622.70000  7.89932e-11      4226.92
       622.80000  7.89932e-11      4220.60
       622.90000  7.89932e-11      4211.92
       623.00000  7.89932e-11      4202.44
       623.10000  7.89932e-11      4190.59
       623.20000  7.89932e-11      4176.37
       623.30000  7.89932e-11      4161.36
       623.40000  7.89932e-11      4143.98
       623.50000  4.67700e-11      2442.80
       623.60000  4.67700e-11      2442.33
       623.70000  4.67700e-11      2442.33
       623.80000  4.67477e-11      2440.23
       623.90000  4.67477e-11      2439.76
       624.00000  4.67477e-11      2438.83
       624.10000  4.67477e-11      2437.43
       624.20000  4.67477e-11      2436.02
       624.30000  4.67477e-11      2434.62
       624.40000  4.67477e-11      2432.75
       624.50000  8.94551e-11      4651.67
       624.60000  8.94551e-11      4633.78
       624.70000  8.94551e-11      4619.46
       624.80000  8.94551e-11      4606.94
       624.90000  8.94551e-11      4597.10
       625.00000  8.94551e-11      4589.94
       625.10000  8.94551e-11      4585.47
       625.20000  8.94551e-11      4582.79
       625.30000  8.94551e-11      4583.68
       625.40000  8.94551e-11      4586.36
       625.50000  1.56355e-10      8025.71
       625.60000  1.56355e-10      8038.22
       625.70000  1.56355e-10      8056.98
       625.80000  1.56355e-10      8078.87
       625.90000  1.56355e-10      8105.45
       626.00000  1.56355e-10      8136.73
       626.10000  1.56355e-10      8172.69
       626.20000  1.56355e-10      8211.78
       626.30000  1.56175e-10      8247.61
       626.40000  1.56175e-10      8296.03
       626.50000  4.69278e-11      2508.29
       626.60000  4.69278e-11      2508.76
       626.70000  4.69278e-11      2509.23
       626.80000  4.69278e-11      2509.70
       626.90000  4.69278e-11      2510.17
       627.00000  4.69278e-11      2510.64
       627.10000  4.69278e-11      2511.11
       627.20000  4.69278e-11      2511.11
       627.30000  4.69278e-11      2511.58
       627.40000  4.69278e-11      2512.05
       627.50000  1.21262e-10      6492.36
       627.60000  1.21262e-10      6497.21
       627.70000  1.21262e-10      6500.85
       627.80000  1.21262e-10      6503.27
       627.90000  1.21262e-10      6505.70
       628.00000  1.21262e-10      6506.91
       628.10000  1.21262e-10      6508.13
       628.20000  1.21262e-10      6508.13
       628.30000  1.21262e-10      6506.91
       628.40000  1.21262e-10      6505.70
       628.50000  1.31986e-10      7078.42
       628.60000  1.31986e-10      7074.46
       628.70000  1.31986e-10      7070.50
       628.80000  1.31690e-10      7049.39
       628.90000  1.31690e-10      7042.81
       629.00000  1.31690e-10      7036.22
       629.10000  1.31690e-10      7028.32
       629.20000  1.31690e-10      7020.42
       629.30000  1.31690e-10      7011.20
       629.40000  1.31690e-10      7000.67
       629.50000  1.11860e-10      5937.50
       629.60000  1.11860e-10      5925.20
       629.70000  1.11860e-10      5912.90
       629.80000  1.11860e-10      5901.71
       629.90000  1.11860e-10      5891.64
       630.00000  1.11860e-10      5881.57
       630.10000  1.11860e-10      5871.51
       630.20000  1.11860e-10      5863.68
       630.30000  1.11860e-10      5854.73
       630.40000  1.11860e-10      5848.02
       630.50000  3.81413e-11      1991.74
       630.60000  3.81413e-11      1989.45
       630.70000  3.81413e-11      1987.54
       630.80000  3.81413e-11      1986.02
       630.90000  3.81413e-11      1984.49
       631.00000  3.81413e-11      1983.35
       631.10000  3.81413e-11      1984.49
       631.20000  3.81413e-11      1985.63
       631.30000  3.80377e-11      1981.76
       631.40000  3.80377e-11      1982.91
       631.50000  7.37984e-11      3849.33
       631.60000  7.37984e-11      3851.54
       631.70000  7.37984e-11      3853.75
       631.80000  7.37984e-11      3855.23
       631.90000  7.37984e-11      3857.44
       632.00000  7.37984e-11      3859.66
       632.10000  7.37984e-11      3861.87
       632.20000  7.37984e-11      3863.35
       632.30000  7.37984e-11      3865.56
       632.40000  7.37984e-11      3867.77
       632.50000  1.28172e-10      6720.03
       632.60000  1.28172e-10      6722.60
       632.70000  1.28172e-10      6726.44
       632.80000  1.28172e-10      6729.01
       632.90000  1.28172e-10      6731.57
       633.00000  1.28172e-10      6735.41
       633.10000  1.28172e-10      6737.98
       633.20000  1.28172e-10      6740.54
       633.30000  1.28172e-10      6743.10
       633.40000  1.28172e-10      6745.67
       633.50000  2.73627e-11      1440.65
       633.60000  2.73627e-11      1441.20
       633.70000  2.73627e-11      1441.74
       633.80000  2.72895e-11      1438.16
       633.90000  2.72895e-11      1438.70
       634.00000  2.72895e-11      1439.25
       634.10000  2.72895e-11      1439.52
       634.20000  2.72895e-11      1440.07
       634.30000  2.72895e-11      1440.34
       634.40000  2.72895e-11      1440.89
       634.50000  5.62315e-11      2969.59
       634.60000  5.62315e-11      2970.15
       634.70000  5.62315e-11      2971.27
       634.80000  5.62315e-11      2971.84
       634.90000  5.62315e-11      2972.40
       635.00000  5.62315e-11      2972.96
       635.10000  5.62315e-11      2973.52
       635.20000  5.62315e-11      2973.52
       635.30000  5.62315e-11      2974.09
       635.40000  5.62315e-11      2974.09
       635.50000  1.27741e-10      6757.53
       635.60000  1.27741e-10      6758.80
       635.70000  1.27741e-10      6758.80
       635.80000  1.27741e-10      6760.08
       635.90000  1.27741e-10      6760.08
       636.00000  1.27741e-10      6761.36
       636.10000  1.27741e-10      6761.36
       636.20000  1.27741e-10      6762.64
       636.30000  1.27281e-10      6738.25
       636.40000  1.27281e-10      6739.52
       636.50000  2.69350e-11      1426.21
       636.60000  2.69350e-11      1426.48
       636.70000  2.69350e-11      1426.48
       636.80000  2.69350e-11      1426.75
       636.90000  2.69350e-11      1426.75
       637.00000  2.69350e-11      1426.75
       637.10000  2.69350e-11      1427.02
       637.20000  2.69350e-11      1427.02
       637.30000  2.69350e-11      1427.29
       637.40000  2.69350e-11      1427.29
       637.50000  1.31685e-11      697.799
       637.60000  1.31685e-11      697.931
       637.70000  1.31685e-11      697.931
       637.80000  1.31685e-11      698.062
       637.90000  1.31685e-11      698.062
       638.00000  1.31685e-11      698.062
       638.10000  1.31685e-11      698.194
       638.20000  1.31685e-11      698.194
       638.30000  1.31685e-11      698.194
       638.40000  1.31685e-11      698.326
       638.50000  1.09692e-10      5816.96
       638.60000  1.09692e-10      5816.96
       638.70000  1.09692e-10      5818.06
       638.80000  1.09383e-10      5801.66
       638.90000  1.09383e-10      5801.66
       639.00000  1.09383e-10      5801.66
       639.10000  1.09383e-10      5792.91
       639.20000  1.09383e-10      5784.16
       639.30000  1.09383e-10      5775.41
       639.40000  1.09383e-10      5767.76
       639.50000  2.67306e-11      1407.37
       639.60000  2.67306e-11      1405.76
       639.70000  2.67306e-11      1403.89
       639.80000  2.67306e-11      1402.29
       639.90000  2.67306e-11      1400.95
       640.00000  2.67306e-11      1399.35
       640.10000  2.67306e-11      1398.01
       640.20000  2.67306e-11      1396.94
       640.30000  2.67306e-11      1395.87
       640.40000  2.67306e-11      1394.80
       640.50000  5.85874e-11      3054.75
       640.60000  5.85874e-11      3052.99
       640.70000  5.85874e-11      3051.23
       640.80000  5.85874e-11      3050.06
       640.90000  5.85874e-11      3048.30
       641.00000  5.85874e-11      3047.71
       641.10000  5.85874e-11      3048.89
       641.20000  5.85874e-11      3050.06
       641.30000  5.84031e-11      3041.63
       641.40000  5.84031e-11      3042.80
       641.50000  3.81866e-11      1990.28
       641.60000  3.81866e-11      1991.05
       641.70000  3.81866e-11      1991.81
       641.80000  3.81866e-11      1992.58
       641.90000  3.81866e-11      1993.34
       642.00000  3.81866e-11      1994.10
       642.10000  3.81866e-11      1994.48
       642.20000  3.81866e-11      1995.25
       642.30000  3.81866e-11      1996.01
       642.40000  3.81866e-11      1996.78
       642.50000  1.86127e-11      973.629
       642.60000  1.86127e-11      974.001
       642.70000  1.86127e-11      974.373
       642.80000  1.86127e-11      974.745
       642.90000  1.86127e-11      975.118
       643.00000  1.86127e-11      975.490
       643.10000  1.86127e-11      975.676
       643.20000  1.86127e-11      976.048
       643.30000  1.86127e-11      976.421
       643.40000  1.86127e-11      976.793
       643.50000  5.62830e-11      2954.86
       643.60000  5.62830e-11      2955.99
       643.70000  5.62830e-11      2956.55
       643.80000  5.60726e-11      2946.61
