PDS_VERSION_ID         = PDS3
RECORD_TYPE            = STREAM
OBJECT                 = TEXT
  PUBLICATION_DATE     = 2014-04-25
  INTERCHANGE_FORMAT   = ASCII
  NOTE                 = "System transmission vs. wavelength."
END_OBJECT             = TEXT
END
    
The systrans directory contains the non-wavelength-integrated system 
transmission values (QE*optics*filter1*filter2) for each filter combination. 
The naming convention for these files is as follows:

<camera><filter 1><filter 2>_systrans.tab

where <camera> is "issna" or "isswa," and <filter 1> and <filter 2> represent
the filter names. For polarized filter combinations, values are given for the
parallel orientation of the filter (full transmission), with values for the 
perpendicular (blocking) orientation provided in files with subscript 
"_b_systrans.tab". 

Columns in systrans files are as follows:

 1st column: Wavelength (nm)  
 2nd column: Transmitted Flux
 3rd column: Transmitted Flux * Solar Flux (phot per cm^2-s-angstrom at 1 AU)

The solar spectrum used for this calculation is provided in solarflux.tab.

\begindata
       600.00000  2.59456e-10      13818.7
       600.10000  2.59456e-10      13797.9
       600.20000  2.59456e-10      13774.5
       600.30000  2.59456e-10      13746.0
       600.40000  2.59456e-10      13712.3
       600.50000  1.60007e-10      8435.57
       600.60000  1.60007e-10      8446.77
       600.70000  1.60007e-10      8456.37
       600.80000  1.60007e-10      8465.97
       600.90000  1.60007e-10      8472.37
       601.00000  1.60007e-10      8477.17
       601.10000  1.60007e-10      8478.77
       601.20000  1.60007e-10      8480.37
       601.30000  1.59925e-10      8476.04
       601.40000  1.59925e-10      8472.84
       601.50000  2.03297e-10      10766.6
       601.60000  2.03297e-10      10719.8
       601.70000  2.03297e-10      10681.2
       601.80000  2.03297e-10      10646.7
       601.90000  2.03297e-10      10620.2
       602.00000  2.03297e-10      10599.9
       602.10000  2.03297e-10      10583.6
       602.20000  2.03297e-10      10575.5
       602.30000  2.03297e-10      10573.5
       602.40000  2.03297e-10      10577.5
       602.50000  1.24804e-10      6498.54
       602.60000  1.24804e-10      6508.52
       602.70000  1.24804e-10      6522.25
       602.80000  1.24804e-10      6539.72
       602.90000  1.24804e-10      6560.94
       603.00000  1.24804e-10      6585.90
       603.10000  1.24804e-10      6614.61
       603.20000  1.24804e-10      6647.06
       603.30000  1.24804e-10      6683.25
       603.40000  1.24804e-10      6723.19
       603.50000  8.87352e-11      4811.22
       603.60000  8.87352e-11      4809.45
       603.70000  8.87352e-11      4807.67
       603.80000  8.87807e-11      4808.36
       603.90000  8.87807e-11      4805.70
       604.00000  8.87807e-11      4803.92
       604.10000  8.87807e-11      4801.26
       604.20000  8.87807e-11      4799.49
       604.30000  8.87807e-11      4796.82
       604.40000  8.87807e-11      4795.05
       604.50000  1.74904e-15    0.0944132
       604.60000  1.74904e-15    0.0943432
       604.70000  1.74904e-15    0.0942732
       604.80000  1.74904e-15    0.0942033
       604.90000  1.74904e-15    0.0941333
       605.00000  1.74904e-15    0.0940808
       605.10000  1.74904e-15    0.0940284
       605.20000  1.74904e-15    0.0939934
       605.30000  1.74904e-15    0.0939409
       605.40000  1.74904e-15    0.0939059
       605.50000  1.58696e-10      8517.19
       605.60000  1.58696e-10      8515.60
       605.70000  1.58696e-10      8512.43
       605.80000  1.58696e-10      8510.84
       605.90000  1.58696e-10      8510.84
       606.00000  1.58696e-10      8509.25
       606.10000  1.58696e-10      8509.25
       606.20000  1.58696e-10      8509.25
       606.30000  1.58868e-10      8518.52
       606.40000  1.58868e-10      8520.10
       606.50000  2.18265e-10      11707.8
       606.60000  2.18265e-10      11712.1
       606.70000  2.18265e-10      11714.3
       606.80000  2.18265e-10      11718.7
       606.90000  2.18265e-10      11718.7
       607.00000  2.18265e-10      11720.9
       607.10000  2.18265e-10      11720.9
       607.20000  2.18265e-10      11720.9
       607.30000  2.18265e-10      11718.7
       607.40000  2.18265e-10      11716.5
       607.50000  1.07943e-10      5793.32
       607.60000  1.07943e-10      5786.84
       607.70000  1.07943e-10      5781.45
       607.80000  1.07943e-10      5777.13
       607.90000  1.07943e-10      5772.81
       608.00000  1.07943e-10      5768.49
       608.10000  1.07943e-10      5765.25
       608.20000  1.07943e-10      5762.02
       608.30000  1.07943e-10      5759.86
       608.40000  1.07943e-10      5757.70
       608.50000  1.56602e-10      8351.60
       608.60000  1.56602e-10      8350.03
       608.70000  1.56602e-10      8348.46
       608.80000  1.56671e-10      8352.14
       608.90000  1.56671e-10      8353.70
       609.00000  1.56671e-10      8355.27
       609.10000  1.56671e-10      8356.84
       609.20000  1.56671e-10      8359.97
       609.30000  1.56671e-10      8363.10
       609.40000  1.56671e-10      8367.80
       609.50000  8.66913e-12      463.365
       609.60000  8.66913e-12      461.284
       609.70000  8.66913e-12      459.464
       609.80000  8.66913e-12      457.903
       609.90000  8.66913e-12      456.603
       610.00000  8.66913e-12      455.476
       610.10000  8.66913e-12      454.522
       610.20000  8.66913e-12      453.829
       610.30000  8.66913e-12      453.395
       610.40000  8.66913e-12      453.222
       610.50000  5.05512e-11      2642.31
       610.60000  5.05512e-11      2655.45
       610.70000  5.05512e-11      2667.08
       610.80000  5.05512e-11      2677.70
       610.90000  5.05512e-11      2686.80
       611.00000  5.05512e-11      2694.38
       611.10000  5.05512e-11      2700.95
       611.20000  5.05512e-11      2706.00
       611.30000  5.05709e-11      2711.10
       611.40000  5.05709e-11      2713.63
       611.50000  6.36003e-11      3414.06
       611.60000  6.36003e-11      3414.06
       611.70000  6.36003e-11      3412.16
       611.80000  6.36003e-11      3408.97
       611.90000  6.36003e-11      3403.89
       612.00000  6.36003e-11      3397.53
       612.10000  6.36003e-11      3389.26
       612.20000  6.36003e-11      3379.08
       612.30000  6.36003e-11      3367.63
       612.40000  6.36003e-11      3354.28
       612.50000  6.45844e-11      3391.33
       612.60000  6.45844e-11      3382.93
       612.70000  6.45844e-11      3375.18
       612.80000  6.45844e-11      3368.72
       612.90000  6.45844e-11      3363.56
       613.00000  6.45844e-11      3359.03
       613.10000  6.45844e-11      3355.81
       613.20000  6.45844e-11      3353.22
       613.30000  6.45844e-11      3351.93
       613.40000  6.45844e-11      3351.93
       613.50000  2.83149e-10      14698.3
       613.60000  2.83149e-10      14740.8
       613.70000  2.83149e-10      14777.6
       613.80000  2.83090e-10      14808.4
       613.90000  2.83090e-10      14842.4
       614.00000  2.83090e-10      14873.5
       614.10000  2.83090e-10      14899.0
       614.20000  2.83090e-10      14924.5
       614.30000  2.83090e-10      14947.1
       614.40000  2.83090e-10      14967.0
       614.50000  2.51402e-10      13306.7
       614.60000  2.51402e-10      13319.3
       614.70000  2.51402e-10      13329.4
       614.80000  2.51402e-10      13336.9
       614.90000  2.51402e-10      13341.9
       615.00000  2.51402e-10      13344.4
       615.10000  2.51402e-10      13347.0
       615.20000  2.51402e-10      13344.4
       615.30000  2.51402e-10      13341.9
       615.40000  2.51402e-10      13336.9
       615.50000  8.91096e-11      4723.70
       615.60000  8.91096e-11      4671.13
       615.70000  8.91096e-11      4623.01
       615.80000  8.91096e-11      4581.13
       615.90000  8.91096e-11      4545.48
       616.00000  8.91096e-11      4514.29
       616.10000  8.91096e-11      4489.34
       616.20000  8.91096e-11      4469.74
       616.30000  8.92488e-11      4462.44
       616.40000  8.92488e-11      4454.41
       616.50000  1.06258e-10      5299.08
       616.60000  1.06258e-10      5344.77
       616.70000  1.06258e-10      5387.28
       616.80000  1.06258e-10      5426.59
       616.90000  1.06258e-10      5463.78
       617.00000  1.06258e-10      5498.85
       617.10000  1.06258e-10      5530.72
       617.20000  1.06258e-10      5559.41
       617.30000  1.06258e-10      5585.98
       617.40000  1.06258e-10      5610.42
       617.50000  1.08231e-10      5736.25
       617.60000  1.08231e-10      5754.65
       617.70000  1.08231e-10      5770.88
       617.80000  1.08231e-10      5784.95
       617.90000  1.08231e-10      5794.69
       618.00000  1.08231e-10      5803.35
       618.10000  1.08231e-10      5808.76
       618.20000  1.08231e-10      5810.93
       618.30000  1.08231e-10      5810.93
       618.40000  1.08231e-10      5807.68
       618.50000  1.43437e-10      7689.68
       618.60000  1.43437e-10      7675.34
       618.70000  1.43437e-10      7660.99
       618.80000  1.43583e-10      7658.71
       618.90000  1.43583e-10      7648.66
       619.00000  1.43583e-10      7641.48
       619.10000  1.43583e-10      7635.73
       619.20000  1.43583e-10      7632.86
       619.30000  1.43583e-10      7631.43
       619.40000  1.43583e-10      7631.43
       619.50000  1.88665e-10      10031.3
       619.60000  1.88665e-10      10067.2
       619.70000  1.88665e-10      10099.2
       619.80000  1.88665e-10      10127.5
       619.90000  1.88665e-10      10152.1
       620.00000  1.88665e-10      10170.9
       620.10000  1.88665e-10      10186.0
       620.20000  1.88665e-10      10197.4
       620.30000  1.88665e-10      10204.9
       620.40000  1.88665e-10      10206.8
       620.50000  6.08757e-11      3293.37
       620.60000  6.08757e-11      3279.98
       620.70000  6.08757e-11      3267.20
       620.80000  6.08757e-11      3256.24
       620.90000  6.08757e-11      3246.50
       621.00000  6.08757e-11      3237.98
       621.10000  6.08757e-11      3230.67
       621.20000  6.08757e-11      3225.19
       621.30000  6.08969e-11      3221.44
       621.40000  6.08969e-11      3217.79
       621.50000  1.61698e-10      8539.27
       621.60000  1.61698e-10      8568.37
       621.70000  1.61698e-10      8594.24
       621.80000  1.61698e-10      8615.26
       621.90000  1.61698e-10      8634.67
       622.00000  1.61698e-10      8649.22
       622.10000  1.61698e-10      8660.54
       622.20000  1.61698e-10      8667.01
       622.30000  1.61698e-10      8671.86
       622.40000  1.61698e-10      8671.86
       622.50000  1.17670e-10      6308.26
       622.60000  1.17670e-10      6303.56
       622.70000  1.17670e-10      6296.50
       622.80000  1.17670e-10      6287.08
       622.90000  1.17670e-10      6274.14
       623.00000  1.17670e-10      6260.02
       623.10000  1.17670e-10      6242.37
       623.20000  1.17670e-10      6221.19
       623.30000  1.17670e-10      6198.83
       623.40000  1.17670e-10      6172.94
       623.50000  1.78576e-10      9327.02
       623.60000  1.78576e-10      9325.24
       623.70000  1.78576e-10      9325.24
       623.80000  1.78491e-10      9317.23
       623.90000  1.78491e-10      9315.44
       624.00000  1.78491e-10      9311.88
       624.10000  1.78491e-10      9306.52
       624.20000  1.78491e-10      9301.17
       624.30000  1.78491e-10      9295.81
       624.40000  1.78491e-10      9288.67
       624.50000  3.98311e-11      2071.22
       624.60000  3.98311e-11      2063.25
       624.70000  3.98311e-11      2056.88
       624.80000  3.98311e-11      2051.30
       624.90000  3.98311e-11      2046.92
       625.00000  3.98311e-11      2043.73
       625.10000  3.98311e-11      2041.74
       625.20000  3.98311e-11      2040.55
       625.30000  3.98311e-11      2040.95
       625.40000  3.98311e-11      2042.14
       625.50000  1.37194e-10      7042.17
       625.60000  1.37194e-10      7053.14
       625.70000  1.37194e-10      7069.61
       625.80000  1.37194e-10      7088.81
       625.90000  1.37194e-10      7112.14
       626.00000  1.37194e-10      7139.57
       626.10000  1.37194e-10      7171.13
       626.20000  1.37194e-10      7205.43
       626.30000  1.37036e-10      7236.87
       626.40000  1.37036e-10      7279.35
       626.50000  2.07095e-10      11069.2
       626.60000  2.07095e-10      11071.3
       626.70000  2.07095e-10      11073.4
       626.80000  2.07095e-10      11075.5
       626.90000  2.07095e-10      11077.5
       627.00000  2.07095e-10      11079.6
       627.10000  2.07095e-10      11081.7
       627.20000  2.07095e-10      11081.7
       627.30000  2.07095e-10      11083.7
       627.40000  2.07095e-10      11085.8
       627.50000  4.11356e-11      2202.40
       627.60000  4.11356e-11      2204.05
       627.70000  4.11356e-11      2205.28
       627.80000  4.11356e-11      2206.10
       627.90000  4.11356e-11      2206.93
       628.00000  4.11356e-11      2207.34
       628.10000  4.11356e-11      2207.75
       628.20000  4.11356e-11      2207.75
       628.30000  4.11356e-11      2207.34
       628.40000  4.11356e-11      2206.93
       628.50000  2.28193e-11      1223.80
       628.60000  2.28193e-11      1223.12
       628.70000  2.28193e-11      1222.43
       628.80000  2.27682e-11      1218.78
       628.90000  2.27682e-11      1217.64
       629.00000  2.27682e-11      1216.51
       629.10000  2.27682e-11      1215.14
       629.20000  2.27682e-11      1213.77
       629.30000  2.27682e-11      1212.18
       629.40000  2.27682e-11      1210.36
       629.50000  5.75862e-11      3056.68
       629.60000  5.75862e-11      3050.34
       629.70000  5.75862e-11      3044.01
       629.80000  5.75862e-11      3038.25
       629.90000  5.75862e-11      3033.07
       630.00000  5.75862e-11      3027.88
       630.10000  5.75862e-11      3022.70
       630.20000  5.75862e-11      3018.67
       630.30000  5.75862e-11      3014.06
       630.40000  5.75862e-11      3010.61
       630.50000  3.01766e-11      1575.82
       630.60000  3.01766e-11      1574.01
       630.70000  3.01766e-11      1572.50
       630.80000  3.01766e-11      1571.30
       630.90000  3.01766e-11      1570.09
       631.00000  3.01766e-11      1569.18
       631.10000  3.01766e-11      1570.09
       631.20000  3.01766e-11      1570.99
       631.30000  3.00947e-11      1567.93
       631.40000  3.00947e-11      1568.84
       631.50000  2.50343e-11      1305.79
       631.60000  2.50343e-11      1306.54
       631.70000  2.50343e-11      1307.29
       631.80000  2.50343e-11      1307.79
       631.90000  2.50343e-11      1308.54
       632.00000  2.50343e-11      1309.30
       632.10000  2.50343e-11      1310.05
       632.20000  2.50343e-11      1310.55
       632.30000  2.50343e-11      1311.30
       632.40000  2.50343e-11      1312.05
       632.50000  2.85375e-11      1496.22
       632.60000  2.85375e-11      1496.79
       632.70000  2.85375e-11      1497.65
       632.80000  2.85375e-11      1498.22
       632.90000  2.85375e-11      1498.79
       633.00000  2.85375e-11      1499.65
       633.10000  2.85375e-11      1500.22
       633.20000  2.85375e-11      1500.79
       633.30000  2.85375e-11      1501.36
       633.40000  2.85375e-11      1501.93
       633.50000  1.69649e-10      8932.02
       633.60000  1.69649e-10      8935.41
       633.70000  1.69649e-10      8938.81
       633.80000  1.69195e-10      8916.57
       633.90000  1.69195e-10      8919.96
       634.00000  1.69195e-10      8923.34
       634.10000  1.69195e-10      8925.03
       634.20000  1.69195e-10      8928.42
       634.30000  1.69195e-10      8930.11
       634.40000  1.69195e-10      8933.49
       634.50000  3.93746e-11      2079.37
       634.60000  3.93746e-11      2079.77
       634.70000  3.93746e-11      2080.55
       634.80000  3.93746e-11      2080.95
       634.90000  3.93746e-11      2081.34
       635.00000  3.93746e-11      2081.74
       635.10000  3.93746e-11      2082.13
       635.20000  3.93746e-11      2082.13
       635.30000  3.93746e-11      2082.52
       635.40000  3.93746e-11      2082.52
       635.50000  1.05649e-11      558.885
       635.60000  1.05649e-11      558.990
       635.70000  1.05649e-11      558.990
       635.80000  1.05649e-11      559.096
       635.90000  1.05649e-11      559.096
       636.00000  1.05649e-11      559.202
       636.10000  1.05649e-11      559.202
       636.20000  1.05649e-11      559.307
       636.30000  1.05268e-11      557.290
       636.40000  1.05268e-11      557.396
       636.50000  7.54106e-11      3992.99
       636.60000  7.54106e-11      3993.75
       636.70000  7.54106e-11      3993.75
       636.80000  7.54106e-11      3994.50
       636.90000  7.54106e-11      3994.50
       637.00000  7.54106e-11      3994.50
       637.10000  7.54106e-11      3995.25
       637.20000  7.54106e-11      3995.25
       637.30000  7.54106e-11      3996.01
       637.40000  7.54106e-11      3996.01
       637.50000  1.07311e-10      5686.40
       637.60000  1.07311e-10      5687.47
       637.70000  1.07311e-10      5687.47
       637.80000  1.07311e-10      5688.54
       637.90000  1.07311e-10      5688.54
       638.00000  1.07311e-10      5688.54
       638.10000  1.07311e-10      5689.62
       638.20000  1.07311e-10      5689.62
       638.30000  1.07311e-10      5689.62
       638.40000  1.07311e-10      5690.69
       638.50000  2.11027e-11      1119.08
       638.60000  2.11027e-11      1119.08
       638.70000  2.11027e-11      1119.29
       638.80000  2.10433e-11      1116.13
       638.90000  2.10433e-11      1116.13
       639.00000  2.10433e-11      1116.13
       639.10000  2.10433e-11      1114.45
       639.20000  2.10433e-11      1112.77
       639.30000  2.10433e-11      1111.08
       639.40000  2.10433e-11      1109.61
       639.50000  5.00002e-11      2632.51
       639.60000  5.00002e-11      2629.51
       639.70000  5.00002e-11      2626.01
       639.80000  5.00002e-11      2623.01
       639.90000  5.00002e-11      2620.51
       640.00000  5.00002e-11      2617.51
       640.10000  5.00002e-11      2615.01
       640.20000  5.00002e-11      2613.01
       640.30000  5.00002e-11      2611.01
       640.40000  5.00002e-11      2609.01
       640.50000  1.19263e-10      6218.37
       640.60000  1.19263e-10      6214.79
       640.70000  1.19263e-10      6211.22
       640.80000  1.19263e-10      6208.83
       640.90000  1.19263e-10      6205.25
       641.00000  1.19263e-10      6204.06
       641.10000  1.19263e-10      6206.45
       641.20000  1.19263e-10      6208.83
       641.30000  1.18888e-10      6191.68
       641.40000  1.18888e-10      6194.06
       641.50000  3.60801e-11      1880.50
       641.60000  3.60801e-11      1881.22
       641.70000  3.60801e-11      1881.94
       641.80000  3.60801e-11      1882.66
       641.90000  3.60801e-11      1883.38
       642.00000  3.60801e-11      1884.10
       642.10000  3.60801e-11      1884.46
       642.20000  3.60801e-11      1885.19
       642.30000  3.60801e-11      1885.91
       642.40000  3.60801e-11      1886.63
       642.50000  5.68383e-11      2973.21
       642.60000  5.68383e-11      2974.35
       642.70000  5.68383e-11      2975.48
       642.80000  5.68383e-11      2976.62
       642.90000  5.68383e-11      2977.76
       643.00000  5.68383e-11      2978.89
       643.10000  5.68383e-11      2979.46
       643.20000  5.68383e-11      2980.60
       643.30000  5.68383e-11      2981.74
       643.40000  5.68383e-11      2982.87
       643.50000  2.08475e-11      1094.50
       643.60000  2.08475e-11      1094.91
       643.70000  2.08475e-11      1095.12
       643.80000  2.07696e-11      1091.44
