PDS_VERSION_ID         = PDS3
RECORD_TYPE            = STREAM
OBJECT                 = TEXT
  PUBLICATION_DATE     = 2014-04-25
  INTERCHANGE_FORMAT   = ASCII
  NOTE                 = "System transmission vs. wavelength."
END_OBJECT             = TEXT
END
    
The systrans directory contains the non-wavelength-integrated system 
transmission values (QE*optics*filter1*filter2) for each filter combination. 
The naming convention for these files is as follows:

<camera><filter 1><filter 2>_systrans.tab

where <camera> is "issna" or "isswa," and <filter 1> and <filter 2> represent
the filter names. For polarized filter combinations, values are given for the
parallel orientation of the filter (full transmission), with values for the 
perpendicular (blocking) orientation provided in files with subscript 
"_b_systrans.tab". 

Columns in systrans files are as follows:

 1st column: Wavelength (nm)  
 2nd column: Transmitted Flux
 3rd column: Transmitted Flux * Solar Flux (phot per cm^2-s-angstrom at 1 AU)

The solar spectrum used for this calculation is provided in solarflux.tab.

\begindata
       600.00000  4.61919e-10      24601.8
       600.10000  4.61919e-10      24564.9
       600.20000  4.61919e-10      24523.3
       600.30000  4.61919e-10      24472.5
       600.40000  4.61919e-10      24412.4
       600.50000  3.60485e-10      19004.7
       600.60000  3.60485e-10      19030.0
       600.70000  3.60485e-10      19051.6
       600.80000  3.60485e-10      19073.2
       600.90000  3.60485e-10      19087.7
       601.00000  3.60485e-10      19098.5
       601.10000  3.60485e-10      19102.1
       601.20000  3.60485e-10      19105.7
       601.30000  3.60301e-10      19095.9
       601.40000  3.60301e-10      19088.7
       601.50000  6.37696e-10      33772.4
       601.60000  6.37696e-10      33625.7
       601.70000  6.37696e-10      33504.5
       601.80000  6.37696e-10      33396.1
       601.90000  6.37696e-10      33313.2
       602.00000  6.37696e-10      33249.4
       602.10000  6.37696e-10      33198.4
       602.20000  6.37696e-10      33172.9
       602.30000  6.37696e-10      33166.5
       602.40000  6.37696e-10      33179.3
       602.50000  2.20029e-10      11456.9
       602.60000  2.20029e-10      11474.5
       602.70000  2.20029e-10      11498.7
       602.80000  2.20029e-10      11529.5
       602.90000  2.20029e-10      11566.9
       603.00000  2.20029e-10      11610.9
       603.10000  2.20029e-10      11661.5
       603.20000  2.20029e-10      11718.7
       603.30000  2.20029e-10      11782.6
       603.40000  2.20029e-10      11853.0
       603.50000  5.14197e-10      27879.8
       603.60000  5.14197e-10      27869.5
       603.70000  5.14197e-10      27859.2
       603.80000  5.14461e-10      27863.2
       603.90000  5.14461e-10      27847.8
       604.00000  5.14461e-10      27837.5
       604.10000  5.14461e-10      27822.0
       604.20000  5.14461e-10      27811.8
       604.30000  5.14461e-10      27796.3
       604.40000  5.14461e-10      27786.0
       604.50000  3.07422e-10      16594.6
       604.60000  3.07422e-10      16582.3
       604.70000  3.07422e-10      16570.0
       604.80000  3.07422e-10      16557.7
       604.90000  3.07422e-10      16545.4
       605.00000  3.07422e-10      16536.2
       605.10000  3.07422e-10      16527.0
       605.20000  3.07422e-10      16520.8
       605.30000  3.07422e-10      16511.6
       605.40000  3.07422e-10      16505.5
       605.50000  1.69788e-10      9112.54
       605.60000  1.69788e-10      9110.85
       605.70000  1.69788e-10      9107.45
       605.80000  1.69788e-10      9105.75
       605.90000  1.69788e-10      9105.75
       606.00000  1.69788e-10      9104.05
       606.10000  1.69788e-10      9104.05
       606.20000  1.69788e-10      9104.05
       606.30000  1.69973e-10      9113.96
       606.40000  1.69973e-10      9115.66
       606.50000  6.61069e-10      35459.7
       606.60000  6.61069e-10      35473.0
       606.70000  6.61069e-10      35479.6
       606.80000  6.61069e-10      35492.8
       606.90000  6.61069e-10      35492.8
       607.00000  6.61069e-10      35499.4
       607.10000  6.61069e-10      35499.4
       607.20000  6.61069e-10      35499.4
       607.30000  6.61069e-10      35492.8
       607.40000  6.61069e-10      35486.2
       607.50000  4.38394e-10      23528.6
       607.60000  4.38394e-10      23502.3
       607.70000  4.38394e-10      23480.4
       607.80000  4.38394e-10      23462.8
       607.90000  4.38394e-10      23445.3
       608.00000  4.38394e-10      23427.8
       608.10000  4.38394e-10      23414.6
       608.20000  4.38394e-10      23401.5
       608.30000  4.38394e-10      23392.7
       608.40000  4.38394e-10      23383.9
       608.50000  3.01088e-10      16057.0
       608.60000  3.01088e-10      16054.0
       608.70000  3.01088e-10      16051.0
       608.80000  3.01221e-10      16058.1
       608.90000  3.01221e-10      16061.1
       609.00000  3.01221e-10      16064.1
       609.10000  3.01221e-10      16067.1
       609.20000  3.01221e-10      16073.1
       609.30000  3.01221e-10      16079.2
       609.40000  3.01221e-10      16088.2
       609.50000  6.17241e-10      32991.5
       609.60000  6.17241e-10      32843.4
       609.70000  6.17241e-10      32713.8
       609.80000  6.17241e-10      32602.6
       609.90000  6.17241e-10      32510.1
       610.00000  6.17241e-10      32429.8
       610.10000  6.17241e-10      32361.9
       610.20000  6.17241e-10      32312.5
       610.30000  6.17241e-10      32281.7
       610.40000  6.17241e-10      32269.3
       610.50000  1.15969e-10      6061.71
       610.60000  1.15969e-10      6091.86
       610.70000  1.15969e-10      6118.53
       610.80000  1.15969e-10      6142.89
       610.90000  1.15969e-10      6163.76
       611.00000  1.15969e-10      6181.16
       611.10000  1.15969e-10      6196.23
       611.20000  1.15969e-10      6207.83
       611.30000  1.16014e-10      6219.53
       611.40000  1.16014e-10      6225.33
       611.50000  3.81096e-10      20457.3
       611.60000  3.81096e-10      20457.3
       611.70000  3.81096e-10      20445.8
       611.80000  3.81096e-10      20426.8
       611.90000  3.81096e-10      20396.3
       612.00000  3.81096e-10      20358.2
       612.10000  3.81096e-10      20308.6
       612.20000  3.81096e-10      20247.6
       612.30000  3.81096e-10      20179.1
       612.40000  3.81096e-10      20099.0
       612.50000  4.29533e-10      22554.8
       612.60000  4.29533e-10      22498.9
       612.70000  4.29533e-10      22447.4
       612.80000  4.29533e-10      22404.4
       612.90000  4.29533e-10      22370.1
       613.00000  4.29533e-10      22340.0
       613.10000  4.29533e-10      22318.5
       613.20000  4.29533e-10      22301.4
       613.30000  4.29533e-10      22292.8
       613.40000  4.29533e-10      22292.8
       613.50000  3.22090e-10      16719.7
       613.60000  3.22090e-10      16768.0
       613.70000  3.22090e-10      16809.9
       613.80000  3.22022e-10      16845.0
       613.90000  3.22022e-10      16883.6
       614.00000  3.22022e-10      16919.0
       614.10000  3.22022e-10      16948.0
       614.20000  3.22022e-10      16977.0
       614.30000  3.22022e-10      17002.8
       614.40000  3.22022e-10      17025.3
       614.50000  3.65523e-10      19347.2
       614.60000  3.65523e-10      19365.4
       614.70000  3.65523e-10      19380.1
       614.80000  3.65523e-10      19391.0
       614.90000  3.65523e-10      19398.3
       615.00000  3.65523e-10      19402.0
       615.10000  3.65523e-10      19405.6
       615.20000  3.65523e-10      19402.0
       615.30000  3.65523e-10      19398.3
       615.40000  3.65523e-10      19391.0
       615.50000  2.14450e-10      11368.0
       615.60000  2.14450e-10      11241.5
       615.70000  2.14450e-10      11125.6
       615.80000  2.14450e-10      11024.9
       615.90000  2.14450e-10      10939.1
       616.00000  2.14450e-10      10864.0
       616.10000  2.14450e-10      10804.0
       616.20000  2.14450e-10      10756.8
       616.30000  2.14784e-10      10739.2
       616.40000  2.14784e-10      10719.9
       616.50000  4.99222e-11      2489.62
       616.60000  4.99222e-11      2511.09
       616.70000  4.99222e-11      2531.05
       616.80000  4.99222e-11      2549.53
       616.90000  4.99222e-11      2567.00
       617.00000  4.99222e-11      2583.47
       617.10000  4.99222e-11      2598.45
       617.20000  4.99222e-11      2611.93
       617.30000  4.99222e-11      2624.41
       617.40000  4.99222e-11      2635.89
       617.50000  1.78631e-10      9467.44
       617.60000  1.78631e-10      9497.80
       617.70000  1.78631e-10      9524.60
       617.80000  1.78631e-10      9547.82
       617.90000  1.78631e-10      9563.90
       618.00000  1.78631e-10      9578.19
       618.10000  1.78631e-10      9587.12
       618.20000  1.78631e-10      9590.69
       618.30000  1.78631e-10      9590.69
       618.40000  1.78631e-10      9585.33
       618.50000  1.38748e-10      7438.27
       618.60000  1.38748e-10      7424.40
       618.70000  1.38748e-10      7410.52
       618.80000  1.38888e-10      7408.31
       618.90000  1.38888e-10      7398.59
       619.00000  1.38888e-10      7391.65
       619.10000  1.38888e-10      7386.09
       619.20000  1.38888e-10      7383.31
       619.30000  1.38888e-10      7381.92
       619.40000  1.38888e-10      7381.92
       619.50000  2.35138e-10      12502.3
       619.60000  2.35138e-10      12547.0
       619.70000  2.35138e-10      12586.9
       619.80000  2.35138e-10      12622.2
       619.90000  2.35138e-10      12652.8
       620.00000  2.35138e-10      12676.3
       620.10000  2.35138e-10      12695.1
       620.20000  2.35138e-10      12709.2
       620.30000  2.35138e-10      12718.6
       620.40000  2.35138e-10      12721.0
       620.50000  1.87383e-10      10137.4
       620.60000  1.87383e-10      10096.2
       620.70000  1.87383e-10      10056.8
       620.80000  1.87383e-10      10023.1
       620.90000  1.87383e-10      9993.11
       621.00000  1.87383e-10      9966.88
       621.10000  1.87383e-10      9944.39
       621.20000  1.87383e-10      9927.53
       621.30000  1.87448e-10      9915.99
       621.40000  1.87448e-10      9904.74
       621.50000  2.91262e-10      15381.6
       621.60000  2.91262e-10      15434.0
       621.70000  2.91262e-10      15480.6
       621.80000  2.91262e-10      15518.4
       621.90000  2.91262e-10      15553.4
       622.00000  2.91262e-10      15579.6
       622.10000  2.91262e-10      15600.0
       622.20000  2.91262e-10      15611.7
       622.30000  2.91262e-10      15620.4
       622.40000  2.91262e-10      15620.4
       622.50000  1.62550e-10      8714.31
       622.60000  1.62550e-10      8707.81
       622.70000  1.62550e-10      8698.05
       622.80000  1.62550e-10      8685.05
       622.90000  1.62550e-10      8667.17
       623.00000  1.62550e-10      8647.66
       623.10000  1.62550e-10      8623.28
       623.20000  1.62550e-10      8594.02
       623.30000  1.62550e-10      8563.14
       623.40000  1.62550e-10      8527.38
       623.50000  2.75617e-10      14395.4
       623.60000  2.75617e-10      14392.7
       623.70000  2.75617e-10      14392.7
       623.80000  2.75485e-10      14380.3
       623.90000  2.75485e-10      14377.6
       624.00000  2.75485e-10      14372.1
       624.10000  2.75485e-10      14363.8
       624.20000  2.75485e-10      14355.5
       624.30000  2.75485e-10      14347.3
       624.40000  2.75485e-10      14336.3
       624.50000  3.67254e-10      19097.2
       624.60000  3.67254e-10      19023.7
       624.70000  3.67254e-10      18965.0
       624.80000  3.67254e-10      18913.6
       624.90000  3.67254e-10      18873.2
       625.00000  3.67254e-10      18843.8
       625.10000  3.67254e-10      18825.4
       625.20000  3.67254e-10      18814.4
       625.30000  3.67254e-10      18818.1
       625.40000  3.67254e-10      18829.1
       625.50000  1.40886e-10      7231.66
       625.60000  1.40886e-10      7242.93
       625.70000  1.40886e-10      7259.83
       625.80000  1.40886e-10      7279.56
       625.90000  1.40886e-10      7303.51
       626.00000  1.40886e-10      7331.69
       626.10000  1.40886e-10      7364.09
       626.20000  1.40886e-10      7399.31
       626.30000  1.40723e-10      7431.60
       626.40000  1.40723e-10      7475.23
       626.50000  4.38955e-10      23462.1
       626.60000  4.38955e-10      23466.5
       626.70000  4.38955e-10      23470.9
       626.80000  4.38955e-10      23475.3
       626.90000  4.38955e-10      23479.7
       627.00000  4.38955e-10      23484.1
       627.10000  4.38955e-10      23488.5
       627.20000  4.38955e-10      23488.5
       627.30000  4.38955e-10      23492.9
       627.40000  4.38955e-10      23497.3
       627.50000  9.78680e-11      5239.85
       627.60000  9.78680e-11      5243.77
       627.70000  9.78680e-11      5246.70
       627.80000  9.78680e-11      5248.66
       627.90000  9.78680e-11      5250.62
       628.00000  9.78680e-11      5251.60
       628.10000  9.78680e-11      5252.58
       628.20000  9.78680e-11      5252.58
       628.30000  9.78680e-11      5251.60
       628.40000  9.78680e-11      5250.62
       628.50000  1.46358e-10      7849.17
       628.60000  1.46358e-10      7844.78
       628.70000  1.46358e-10      7840.38
       628.80000  1.46030e-10      7816.98
       628.90000  1.46030e-10      7809.68
       629.00000  1.46030e-10      7802.37
       629.10000  1.46030e-10      7793.61
       629.20000  1.46030e-10      7784.85
       629.30000  1.46030e-10      7774.63
       629.40000  1.46030e-10      7762.95
       629.50000  2.15292e-10      11427.7
       629.60000  2.15292e-10      11404.0
       629.70000  2.15292e-10      11380.4
       629.80000  2.15292e-10      11358.8
       629.90000  2.15292e-10      11339.5
       630.00000  2.15292e-10      11320.1
       630.10000  2.15292e-10      11300.7
       630.20000  2.15292e-10      11285.6
       630.30000  2.15292e-10      11268.4
       630.40000  2.15292e-10      11255.5
       630.50000  1.68664e-10      8807.64
       630.60000  1.68664e-10      8797.52
       630.70000  1.68664e-10      8789.09
       630.80000  1.68664e-10      8782.34
       630.90000  1.68664e-10      8775.59
       631.00000  1.68664e-10      8770.53
       631.10000  1.68664e-10      8775.59
       631.20000  1.68664e-10      8780.65
       631.30000  1.68206e-10      8763.54
       631.40000  1.68206e-10      8768.59
       631.50000  8.03235e-11      4189.67
       631.60000  8.03235e-11      4192.08
       631.70000  8.03235e-11      4194.49
       631.80000  8.03235e-11      4196.10
       631.90000  8.03235e-11      4198.51
       632.00000  8.03235e-11      4200.92
       632.10000  8.03235e-11      4203.33
       632.20000  8.03235e-11      4204.93
       632.30000  8.03235e-11      4207.34
       632.40000  8.03235e-11      4209.75
       632.50000  8.29543e-11      4349.30
       632.60000  8.29543e-11      4350.96
       632.70000  8.29543e-11      4353.44
       632.80000  8.29543e-11      4355.10
       632.90000  8.29543e-11      4356.76
       633.00000  8.29543e-11      4359.25
       633.10000  8.29543e-11      4360.91
       633.20000  8.29543e-11      4362.57
       633.30000  8.29543e-11      4364.23
       633.40000  8.29543e-11      4365.89
       633.50000  1.36969e-10      7211.42
       633.60000  1.36969e-10      7214.16
       633.70000  1.36969e-10      7216.90
       633.80000  1.36602e-10      7198.95
       633.90000  1.36602e-10      7201.68
       634.00000  1.36602e-10      7204.41
       634.10000  1.36602e-10      7205.78
       634.20000  1.36602e-10      7208.51
       634.30000  1.36602e-10      7209.88
       634.40000  1.36602e-10      7212.61
       634.50000  1.69319e-10      8941.74
       634.60000  1.69319e-10      8943.43
       634.70000  1.69319e-10      8946.82
       634.80000  1.69319e-10      8948.51
       634.90000  1.69319e-10      8950.21
       635.00000  1.69319e-10      8951.90
       635.10000  1.69319e-10      8953.59
       635.20000  1.69319e-10      8953.59
       635.30000  1.69319e-10      8955.29
       635.40000  1.69319e-10      8955.29
       635.50000  5.33060e-11      2819.89
       635.60000  5.33060e-11      2820.42
       635.70000  5.33060e-11      2820.42
       635.80000  5.33060e-11      2820.95
       635.90000  5.33060e-11      2820.95
       636.00000  5.33060e-11      2821.49
       636.10000  5.33060e-11      2821.49
       636.20000  5.33060e-11      2822.02
       636.30000  5.31138e-11      2811.84
       636.40000  5.31138e-11      2812.37
       636.50000  1.61064e-10      8528.33
       636.60000  1.61064e-10      8529.94
       636.70000  1.61064e-10      8529.94
       636.80000  1.61064e-10      8531.55
       636.90000  1.61064e-10      8531.55
       637.00000  1.61064e-10      8531.55
       637.10000  1.61064e-10      8533.16
       637.20000  1.61064e-10      8533.16
       637.30000  1.61064e-10      8534.77
       637.40000  1.61064e-10      8534.77
       637.50000  1.08946e-10      5773.07
       637.60000  1.08946e-10      5774.16
       637.70000  1.08946e-10      5774.16
       637.80000  1.08946e-10      5775.25
       637.90000  1.08946e-10      5775.25
       638.00000  1.08946e-10      5775.25
       638.10000  1.08946e-10      5776.34
       638.20000  1.08946e-10      5776.34
       638.30000  1.08946e-10      5776.34
       638.40000  1.08946e-10      5777.43
       638.50000  1.49924e-10      7950.46
       638.60000  1.49924e-10      7950.46
       638.70000  1.49924e-10      7951.96
       638.80000  1.49501e-10      7929.55
       638.90000  1.49501e-10      7929.55
       639.00000  1.49501e-10      7929.55
       639.10000  1.49501e-10      7917.59
       639.20000  1.49501e-10      7905.63
       639.30000  1.49501e-10      7893.67
       639.40000  1.49501e-10      7883.21
       639.50000  1.09000e-10      5738.86
       639.60000  1.09000e-10      5732.32
       639.70000  1.09000e-10      5724.69
       639.80000  1.09000e-10      5718.15
       639.90000  1.09000e-10      5712.70
       640.00000  1.09000e-10      5706.16
       640.10000  1.09000e-10      5700.71
       640.20000  1.09000e-10      5696.35
       640.30000  1.09000e-10      5691.99
       640.40000  1.09000e-10      5687.63
       640.50000  3.70008e-11      1929.22
       640.60000  3.70008e-11      1928.11
       640.70000  3.70008e-11      1927.00
       640.80000  3.70008e-11      1926.26
       640.90000  3.70008e-11      1925.15
       641.00000  3.70008e-11      1924.78
       641.10000  3.70008e-11      1925.52
       641.20000  3.70008e-11      1926.26
       641.30000  3.68844e-11      1920.94
       641.40000  3.68844e-11      1921.68
       641.50000  1.33567e-10      6961.49
       641.60000  1.33567e-10      6964.17
       641.70000  1.33567e-10      6966.84
       641.80000  1.33567e-10      6969.51
       641.90000  1.33567e-10      6972.18
       642.00000  1.33567e-10      6974.85
       642.10000  1.33567e-10      6976.19
       642.20000  1.33567e-10      6978.86
       642.30000  1.33567e-10      6981.53
       642.40000  1.33567e-10      6984.20
       642.50000  1.04547e-10      5468.84
       642.60000  1.04547e-10      5470.93
       642.70000  1.04547e-10      5473.03
       642.80000  1.04547e-10      5475.12
       642.90000  1.04547e-10      5477.21
       643.00000  1.04547e-10      5479.30
       643.10000  1.04547e-10      5480.34
       643.20000  1.04547e-10      5482.43
       643.30000  1.04547e-10      5484.53
       643.40000  1.04547e-10      5486.62
       643.50000  9.75994e-11      5123.97
       643.60000  9.75994e-11      5125.92
       643.70000  9.75994e-11      5126.90
       643.80000  9.72344e-11      5109.67
