PDS_VERSION_ID         = PDS3
RECORD_TYPE            = STREAM
OBJECT                 = TEXT
  PUBLICATION_DATE     = 2014-04-25
  INTERCHANGE_FORMAT   = ASCII
  NOTE                 = "System transmission vs. wavelength."
END_OBJECT             = TEXT
END
    
The systrans directory contains the non-wavelength-integrated system 
transmission values (QE*optics*filter1*filter2) for each filter combination. 
The naming convention for these files is as follows:

<camera><filter 1><filter 2>_systrans.tab

where <camera> is "issna" or "isswa," and <filter 1> and <filter 2> represent
the filter names. For polarized filter combinations, values are given for the
parallel orientation of the filter (full transmission), with values for the 
perpendicular (blocking) orientation provided in files with subscript 
"_b_systrans.tab". 

Columns in systrans files are as follows:

 1st column: Wavelength (nm)  
 2nd column: Transmitted Flux
 3rd column: Transmitted Flux * Solar Flux (phot per cm^2-s-angstrom at 1 AU)

The solar spectrum used for this calculation is provided in solarflux.tab.

\begindata
       600.00000  2.98907e-10      15919.8
       600.10000  2.98907e-10      15895.9
       600.20000  2.98907e-10      15869.0
       600.30000  2.98907e-10      15836.1
       600.40000  2.98907e-10      15797.2
       600.50000  1.36162e-10      7178.45
       600.60000  1.36162e-10      7187.98
       600.70000  1.36162e-10      7196.15
       600.80000  1.36162e-10      7204.32
       600.90000  1.36162e-10      7209.76
       601.00000  1.36162e-10      7213.85
       601.10000  1.36162e-10      7215.21
       601.20000  1.36162e-10      7216.57
       601.30000  1.36092e-10      7212.89
       601.40000  1.36092e-10      7210.17
       601.50000  4.20039e-11      2224.53
       601.60000  4.20039e-11      2214.87
       601.70000  4.20039e-11      2206.89
       601.80000  4.20039e-11      2199.74
       601.90000  4.20039e-11      2194.28
       602.00000  4.20039e-11      2190.08
       602.10000  4.20039e-11      2186.72
       602.20000  4.20039e-11      2185.04
       602.30000  4.20039e-11      2184.62
       602.40000  4.20039e-11      2185.46
       602.50000  1.22695e-10      6388.71
       602.60000  1.22695e-10      6398.52
       602.70000  1.22695e-10      6412.02
       602.80000  1.22695e-10      6429.20
       602.90000  1.22695e-10      6450.06
       603.00000  1.22695e-10      6474.59
       603.10000  1.22695e-10      6502.81
       603.20000  1.22695e-10      6534.71
       603.30000  1.22695e-10      6570.30
       603.40000  1.22695e-10      6609.56
       603.50000  2.90907e-11      1577.30
       603.60000  2.90907e-11      1576.71
       603.70000  2.90907e-11      1576.13
       603.80000  2.91056e-11      1576.36
       603.90000  2.91056e-11      1575.49
       604.00000  2.91056e-11      1574.90
       604.10000  2.91056e-11      1574.03
       604.20000  2.91056e-11      1573.45
       604.30000  2.91056e-11      1572.58
       604.40000  2.91056e-11      1571.99
       604.50000  1.99246e-10      10755.3
       604.60000  1.99246e-10      10747.3
       604.70000  1.99246e-10      10739.4
       604.80000  1.99246e-10      10731.4
       604.90000  1.99246e-10      10723.4
       605.00000  1.99246e-10      10717.5
       605.10000  1.99246e-10      10711.5
       605.20000  1.99246e-10      10707.5
       605.30000  1.99246e-10      10701.5
       605.40000  1.99246e-10      10697.5
       605.50000  9.42805e-12      506.003
       605.60000  9.42805e-12      505.909
       605.70000  9.42805e-12      505.720
       605.80000  9.42805e-12      505.626
       605.90000  9.42805e-12      505.626
       606.00000  9.42805e-12      505.532
       606.10000  9.42805e-12      505.532
       606.20000  9.42805e-12      505.532
       606.30000  9.43831e-12      506.082
       606.40000  9.43831e-12      506.177
       606.50000  1.93298e-10      10368.5
       606.60000  1.93298e-10      10372.4
       606.70000  1.93298e-10      10374.3
       606.80000  1.93298e-10      10378.2
       606.90000  1.93298e-10      10378.2
       607.00000  1.93298e-10      10380.1
       607.10000  1.93298e-10      10380.1
       607.20000  1.93298e-10      10380.1
       607.30000  1.93298e-10      10378.2
       607.40000  1.93298e-10      10376.3
       607.50000  5.43902e-11      2919.12
       607.60000  5.43902e-11      2915.86
       607.70000  5.43902e-11      2913.14
       607.80000  5.43902e-11      2910.96
       607.90000  5.43902e-11      2908.79
       608.00000  5.43902e-11      2906.61
       608.10000  5.43902e-11      2904.98
       608.20000  5.43902e-11      2903.35
       608.30000  5.43902e-11      2902.26
       608.40000  5.43902e-11      2901.17
       608.50000  1.19526e-10      6374.33
       608.60000  1.19526e-10      6373.13
       608.70000  1.19526e-10      6371.94
       608.80000  1.19579e-10      6374.74
       608.90000  1.19579e-10      6375.94
       609.00000  1.19579e-10      6377.13
       609.10000  1.19579e-10      6378.33
       609.20000  1.19579e-10      6380.72
       609.30000  1.19579e-10      6383.11
       609.40000  1.19579e-10      6386.70
       609.50000  5.95977e-11      3185.50
       609.60000  5.95977e-11      3171.20
       609.70000  5.95977e-11      3158.68
       609.80000  5.95977e-11      3147.95
       609.90000  5.95977e-11      3139.01
       610.00000  5.95977e-11      3131.26
       610.10000  5.95977e-11      3124.71
       610.20000  5.95977e-11      3119.94
       610.30000  5.95977e-11      3116.96
       610.40000  5.95977e-11      3115.77
       610.50000  8.26273e-11      4318.93
       610.60000  8.26273e-11      4340.41
       610.70000  8.26273e-11      4359.41
       610.80000  8.26273e-11      4376.77
       610.90000  8.26273e-11      4391.64
       611.00000  8.26273e-11      4404.03
       611.10000  8.26273e-11      4414.77
       611.20000  8.26273e-11      4423.04
       611.30000  8.26595e-11      4431.37
       611.40000  8.26595e-11      4435.51
       611.50000  2.46385e-11      1322.60
       611.60000  2.46385e-11      1322.60
       611.70000  2.46385e-11      1321.86
       611.80000  2.46385e-11      1320.63
       611.90000  2.46385e-11      1318.66
       612.00000  2.46385e-11      1316.19
       612.10000  2.46385e-11      1312.99
       612.20000  2.46385e-11      1309.05
       612.30000  2.46385e-11      1304.61
       612.40000  2.46385e-11      1299.44
       612.50000  1.98646e-10      10430.9
       612.60000  1.98646e-10      10405.1
       612.70000  1.98646e-10      10381.2
       612.80000  1.98646e-10      10361.4
       612.90000  1.98646e-10      10345.5
       613.00000  1.98646e-10      10331.6
       613.10000  1.98646e-10      10321.6
       613.20000  1.98646e-10      10313.7
       613.30000  1.98646e-10      10309.7
       613.40000  1.98646e-10      10309.7
       613.50000  2.38474e-11      1237.92
       613.60000  2.38474e-11      1241.50
       613.70000  2.38474e-11      1244.60
       613.80000  2.38424e-11      1247.20
       613.90000  2.38424e-11      1250.06
       614.00000  2.38424e-11      1252.68
       614.10000  2.38424e-11      1254.83
       614.20000  2.38424e-11      1256.97
       614.30000  2.38424e-11      1258.88
       614.40000  2.38424e-11      1260.55
       614.50000  6.94743e-11      3677.28
       614.60000  6.94743e-11      3680.75
       614.70000  6.94743e-11      3683.53
       614.80000  6.94743e-11      3685.61
       614.90000  6.94743e-11      3687.00
       615.00000  6.94743e-11      3687.70
       615.10000  6.94743e-11      3688.39
       615.20000  6.94743e-11      3687.70
       615.30000  6.94743e-11      3687.00
       615.40000  6.94743e-11      3685.61
       615.50000  5.83877e-11      3095.13
       615.60000  5.83877e-11      3060.68
       615.70000  5.83877e-11      3029.15
       615.80000  5.83877e-11      3001.71
       615.90000  5.83877e-11      2978.35
       616.00000  5.83877e-11      2957.92
       616.10000  5.83877e-11      2941.57
       616.20000  5.83877e-11      2928.73
       616.30000  5.84788e-11      2923.94
       616.40000  5.84788e-11      2918.68
       616.50000  1.34088e-10      6686.96
       616.60000  1.34088e-10      6744.62
       616.70000  1.34088e-10      6798.25
       616.80000  1.34088e-10      6847.87
       616.90000  1.34088e-10      6894.80
       617.00000  1.34088e-10      6939.05
       617.10000  1.34088e-10      6979.27
       617.20000  1.34088e-10      7015.48
       617.30000  1.34088e-10      7049.00
       617.40000  1.34088e-10      7079.84
       617.50000  2.12275e-11      1125.06
       617.60000  2.12275e-11      1128.67
       617.70000  2.12275e-11      1131.85
       617.80000  2.12275e-11      1134.61
       617.90000  2.12275e-11      1136.52
       618.00000  2.12275e-11      1138.22
       618.10000  2.12275e-11      1139.28
       618.20000  2.12275e-11      1139.70
       618.30000  2.12275e-11      1139.70
       618.40000  2.12275e-11      1139.07
       618.50000  1.40568e-10      7535.87
       618.60000  1.40568e-10      7521.81
       618.70000  1.40568e-10      7507.75
       618.80000  1.40711e-10      7505.51
       618.90000  1.40711e-10      7495.66
       619.00000  1.40711e-10      7488.63
       619.10000  1.40711e-10      7483.00
       619.20000  1.40711e-10      7480.18
       619.30000  1.40711e-10      7478.78
       619.40000  1.40711e-10      7478.78
       619.50000  2.70184e-11      1436.57
       619.60000  2.70184e-11      1441.70
       619.70000  2.70184e-11      1446.30
       619.80000  2.70184e-11      1450.35
       619.90000  2.70184e-11      1453.86
       620.00000  2.70184e-11      1456.56
       620.10000  2.70184e-11      1458.72
       620.20000  2.70184e-11      1460.34
       620.30000  2.70184e-11      1461.43
       620.40000  2.70184e-11      1461.70
       620.50000  1.32663e-11      717.704
       620.60000  1.32663e-11      714.786
       620.70000  1.32663e-11      712.000
       620.80000  1.32663e-11      709.612
       620.90000  1.32663e-11      707.489
       621.00000  1.32663e-11      705.632
       621.10000  1.32663e-11      704.040
       621.20000  1.32663e-11      702.846
       621.30000  1.32709e-11      702.029
       621.40000  1.32709e-11      701.233
       621.50000  6.34504e-12      335.082
       621.60000  6.34504e-12      336.224
       621.70000  6.34504e-12      337.239
       621.80000  6.34504e-12      338.064
       621.90000  6.34504e-12      338.825
       622.00000  6.34504e-12      339.396
       622.10000  6.34504e-12      339.840
       622.20000  6.34504e-12      340.094
       622.30000  6.34504e-12      340.285
       622.40000  6.34504e-12      340.285
       622.50000  3.03690e-11      1628.08
       622.60000  3.03690e-11      1626.87
       622.70000  3.03690e-11      1625.05
       622.80000  3.03690e-11      1622.62
       622.90000  3.03690e-11      1619.28
       623.00000  3.03690e-11      1615.63
       623.10000  3.03690e-11      1611.08
       623.20000  3.03690e-11      1605.61
       623.30000  3.03690e-11      1599.84
       623.40000  3.03690e-11      1593.16
       623.50000  1.75260e-11      915.383
       623.60000  1.75260e-11      915.207
       623.70000  1.75260e-11      915.207
       623.80000  1.75177e-11      914.422
       623.90000  1.75177e-11      914.246
       624.00000  1.75177e-11      913.896
       624.10000  1.75177e-11      913.371
       624.20000  1.75177e-11      912.845
       624.30000  1.75177e-11      912.320
       624.40000  1.75177e-11      911.619
       624.50000  1.22959e-10      6393.85
       624.60000  1.22959e-10      6369.26
       624.70000  1.22959e-10      6349.59
       624.80000  1.22959e-10      6332.37
       624.90000  1.22959e-10      6318.85
       625.00000  1.22959e-10      6309.01
       625.10000  1.22959e-10      6302.86
       625.20000  1.22959e-10      6299.17
       625.30000  1.22959e-10      6300.40
       625.40000  1.22959e-10      6304.09
       625.50000  1.40138e-10      7193.31
       625.60000  1.40138e-10      7204.52
       625.70000  1.40138e-10      7221.34
       625.80000  1.40138e-10      7240.96
       625.90000  1.40138e-10      7264.78
       626.00000  1.40138e-10      7292.81
       626.10000  1.40138e-10      7325.04
       626.20000  1.40138e-10      7360.07
       626.30000  1.39977e-10      7392.19
       626.40000  1.39977e-10      7435.59
       626.50000  1.25071e-10      6685.03
       626.60000  1.25071e-10      6686.28
       626.70000  1.25071e-10      6687.53
       626.80000  1.25071e-10      6688.79
       626.90000  1.25071e-10      6690.04
       627.00000  1.25071e-10      6691.29
       627.10000  1.25071e-10      6692.54
       627.20000  1.25071e-10      6692.54
       627.30000  1.25071e-10      6693.79
       627.40000  1.25071e-10      6695.04
       627.50000  8.58556e-11      4596.71
       627.60000  8.58556e-11      4600.14
       627.70000  8.58556e-11      4602.72
       627.80000  8.58556e-11      4604.44
       627.90000  8.58556e-11      4606.15
       628.00000  8.58556e-11      4607.01
       628.10000  8.58556e-11      4607.87
       628.20000  8.58556e-11      4607.87
       628.30000  8.58556e-11      4607.01
       628.40000  8.58556e-11      4606.15
       628.50000  3.90826e-11      2096.00
       628.60000  3.90826e-11      2094.83
       628.70000  3.90826e-11      2093.66
       628.80000  3.89950e-11      2087.40
       628.90000  3.89950e-11      2085.45
       629.00000  3.89950e-11      2083.50
       629.10000  3.89950e-11      2081.17
       629.20000  3.89950e-11      2078.83
       629.30000  3.89950e-11      2076.10
       629.40000  3.89950e-11      2072.98
       629.50000  1.37461e-10      7296.45
       629.60000  1.37461e-10      7281.33
       629.70000  1.37461e-10      7266.21
       629.80000  1.37461e-10      7252.46
       629.90000  1.37461e-10      7240.09
       630.00000  1.37461e-10      7227.72
       630.10000  1.37461e-10      7215.35
       630.20000  1.37461e-10      7205.72
       630.30000  1.37461e-10      7194.73
       630.40000  1.37461e-10      7186.48
       630.50000  1.27058e-11      663.497
       630.60000  1.27058e-11      662.734
       630.70000  1.27058e-11      662.099
       630.80000  1.27058e-11      661.591
       630.90000  1.27058e-11      661.083
       631.00000  1.27058e-11      660.701
       631.10000  1.27058e-11      661.083
       631.20000  1.27058e-11      661.464
       631.30000  1.26713e-11      660.175
       631.40000  1.26713e-11      660.555
       631.50000  2.45834e-11      1282.27
       631.60000  2.45834e-11      1283.01
       631.70000  2.45834e-11      1283.75
       631.80000  2.45834e-11      1284.24
       631.90000  2.45834e-11      1284.98
       632.00000  2.45834e-11      1285.71
       632.10000  2.45834e-11      1286.45
       632.20000  2.45834e-11      1286.94
       632.30000  2.45834e-11      1287.68
       632.40000  2.45834e-11      1288.42
       632.50000  3.60302e-11      1889.06
       632.60000  3.60302e-11      1889.79
       632.70000  3.60302e-11      1890.87
       632.80000  3.60302e-11      1891.59
       632.90000  3.60302e-11      1892.31
       633.00000  3.60302e-11      1893.39
       633.10000  3.60302e-11      1894.11
       633.20000  3.60302e-11      1894.83
       633.30000  3.60302e-11      1895.55
       633.40000  3.60302e-11      1896.27
       633.50000  1.95348e-11      1028.51
       633.60000  1.95348e-11      1028.90
       633.70000  1.95348e-11      1029.29
       633.80000  1.94825e-11      1026.73
       633.90000  1.94825e-11      1027.12
       634.00000  1.94825e-11      1027.51
       634.10000  1.94825e-11      1027.70
       634.20000  1.94825e-11      1028.09
       634.30000  1.94825e-11      1028.29
       634.40000  1.94825e-11      1028.67
       634.50000  4.56656e-11      2411.60
       634.60000  4.56656e-11      2412.06
       634.70000  4.56656e-11      2412.97
       634.80000  4.56656e-11      2413.43
       634.90000  4.56656e-11      2413.88
       635.00000  4.56656e-11      2414.34
       635.10000  4.56656e-11      2414.80
       635.20000  4.56656e-11      2414.80
       635.30000  4.56656e-11      2415.25
       635.40000  4.56656e-11      2415.25
       635.50000  3.45108e-12      182.562
       635.60000  3.45108e-12      182.597
       635.70000  3.45108e-12      182.597
       635.80000  3.45108e-12      182.631
       635.90000  3.45108e-12      182.631
       636.00000  3.45108e-12      182.666
       636.10000  3.45108e-12      182.666
       636.20000  3.45108e-12      182.700
       636.30000  3.43864e-12      182.041
       636.40000  3.43864e-12      182.076
       636.50000  8.41648e-11      4456.53
       636.60000  8.41648e-11      4457.37
       636.70000  8.41648e-11      4457.37
       636.80000  8.41648e-11      4458.21
       636.90000  8.41648e-11      4458.21
       637.00000  8.41648e-11      4458.21
       637.10000  8.41648e-11      4459.05
       637.20000  8.41648e-11      4459.05
       637.30000  8.41648e-11      4459.90
       637.40000  8.41648e-11      4459.90
       637.50000  6.58280e-12      348.823
       637.60000  6.58280e-12      348.889
       637.70000  6.58280e-12      348.889
       637.80000  6.58280e-12      348.954
       637.90000  6.58280e-12      348.954
       638.00000  6.58280e-12      348.954
       638.10000  6.58280e-12      349.020
       638.20000  6.58280e-12      349.020
       638.30000  6.58280e-12      349.020
       638.40000  6.58280e-12      349.086
       638.50000  9.67850e-11      5132.51
       638.60000  9.67850e-11      5132.51
       638.70000  9.67850e-11      5133.48
       638.80000  9.65123e-11      5119.01
       638.90000  9.65123e-11      5119.01
       639.00000  9.65123e-11      5119.01
       639.10000  9.65123e-11      5111.29
       639.20000  9.65123e-11      5103.57
       639.30000  9.65123e-11      5095.85
       639.40000  9.65123e-11      5089.10
       639.50000  4.45243e-11      2344.20
       639.60000  4.45243e-11      2341.53
       639.70000  4.45243e-11      2338.42
       639.80000  4.45243e-11      2335.74
       639.90000  4.45243e-11      2333.52
       640.00000  4.45243e-11      2330.85
       640.10000  4.45243e-11      2328.62
       640.20000  4.45243e-11      2326.84
       640.30000  4.45243e-11      2325.06
       640.40000  4.45243e-11      2323.28
       640.50000  3.62569e-11      1890.44
       640.60000  3.62569e-11      1889.35
       640.70000  3.62569e-11      1888.26
       640.80000  3.62569e-11      1887.53
       640.90000  3.62569e-11      1886.45
       641.00000  3.62569e-11      1886.08
       641.10000  3.62569e-11      1886.81
       641.20000  3.62569e-11      1887.53
       641.30000  3.61429e-11      1882.32
       641.40000  3.61429e-11      1883.04
       641.50000  5.99877e-11      3126.56
       641.60000  5.99877e-11      3127.76
       641.70000  5.99877e-11      3128.96
       641.80000  5.99877e-11      3130.16
       641.90000  5.99877e-11      3131.36
       642.00000  5.99877e-11      3132.56
       642.10000  5.99877e-11      3133.16
       642.20000  5.99877e-11      3134.36
       642.30000  5.99877e-11      3135.56
       642.40000  5.99877e-11      3136.76
       642.50000  1.59486e-11      834.270
       642.60000  1.59486e-11      834.589
       642.70000  1.59486e-11      834.908
       642.80000  1.59486e-11      835.227
       642.90000  1.59486e-11      835.546
       643.00000  1.59486e-11      835.865
       643.10000  1.59486e-11      836.024
       643.20000  1.59486e-11      836.343
       643.30000  1.59486e-11      836.662
       643.40000  1.59486e-11      836.981
       643.50000  5.37075e-11      2819.64
       643.60000  5.37075e-11      2820.72
       643.70000  5.37075e-11      2821.25
       643.80000  5.35066e-11      2811.77
