PDS_VERSION_ID         = PDS3
RECORD_TYPE            = STREAM
OBJECT                 = TEXT
  PUBLICATION_DATE     = 2014-04-25
  INTERCHANGE_FORMAT   = ASCII
  NOTE                 = "System transmission vs. wavelength."
END_OBJECT             = TEXT
END
    
The systrans directory contains the non-wavelength-integrated system 
transmission values (QE*optics*filter1*filter2) for each filter combination. 
The naming convention for these files is as follows:

<camera><filter 1><filter 2>_systrans.tab

where <camera> is "issna" or "isswa," and <filter 1> and <filter 2> represent
the filter names. For polarized filter combinations, values are given for the
parallel orientation of the filter (full transmission), with values for the 
perpendicular (blocking) orientation provided in files with subscript 
"_b_systrans.tab". 

Columns in systrans files are as follows:

 1st column: Wavelength (nm)  
 2nd column: Transmitted Flux
 3rd column: Transmitted Flux * Solar Flux (phot per cm^2-s-angstrom at 1 AU)

The solar spectrum used for this calculation is provided in solarflux.tab.

\begindata
       659.00000  5.38077e-12      276.141
       659.10000  5.38077e-12      277.002
       659.20000  5.38077e-12      277.809
       659.30000  5.38077e-12      278.509
       659.40000  5.38077e-12      279.154
       659.50000  7.29867e-12      379.458
       659.60000  7.29867e-12      380.188
       659.70000  7.29867e-12      380.772
       659.80000  7.29867e-12      381.355
       659.90000  7.29867e-12      381.793
       660.00000  7.29867e-12      382.158
       660.10000  7.29867e-12      382.450
       660.20000  7.29867e-12      382.596
       660.30000  7.29867e-12      382.742
       660.40000  7.29867e-12      382.742
       660.50000  1.07920e-11      565.826
       660.60000  1.07920e-11      565.610
       660.70000  1.07920e-11      565.286
       660.80000  1.07920e-11      564.746
       660.90000  1.07920e-11      564.207
       661.00000  1.07920e-11      563.451
       661.10000  1.07920e-11      563.128
       661.20000  1.07920e-11      562.696
       661.30000  1.07130e-11      558.255
       661.40000  1.07130e-11      557.933
       661.50000  2.87469e-12      149.628
       661.60000  2.87469e-12      149.570
       661.70000  2.87469e-12      149.484
       661.80000  2.87469e-12      149.426
       661.90000  2.87469e-12      149.369
       662.00000  2.87469e-12      149.311
       662.10000  2.87469e-12      149.254
       662.20000  2.87469e-12      149.196
       662.30000  2.87469e-12      149.168
       662.40000  2.87469e-12      149.139
       662.50000  2.75591e-13      14.2922
       662.60000  2.75591e-13      14.2922
       662.70000  2.75591e-13      14.2894
       662.80000  2.75591e-13      14.2867
       662.90000  2.75591e-13      14.2867
       663.00000  2.75591e-13      14.2867
       663.10000  2.75591e-13      14.2977
       663.20000  2.75591e-13      14.3059
       663.30000  2.75591e-13      14.3170
       663.40000  2.75591e-13      14.3252
       663.50000  6.82875e-12      355.163
       663.60000  6.82875e-12      355.368
       663.70000  6.82875e-12      355.505
       663.80000  6.77260e-12      352.785
       663.90000  6.77260e-12      352.920
       664.00000  6.77260e-12      352.988
       664.10000  6.77260e-12      353.123
       664.20000  6.77260e-12      353.191
       664.30000  6.77260e-12      353.259
       664.40000  6.77260e-12      353.326
       664.50000  5.51011e-12      287.462
       664.60000  5.51011e-12      287.462
       664.70000  5.51011e-12      287.462
       664.80000  5.51011e-12      287.462
       664.90000  5.51011e-12      287.462
       665.00000  5.51011e-12      287.407
       665.10000  5.51011e-12      287.352
       665.20000  5.51011e-12      287.297
       665.30000  5.51011e-12      287.187
       665.40000  5.51011e-12      287.077
       665.50000  5.52139e-13      28.7554
       665.60000  5.52139e-13      28.7444
       665.70000  5.52139e-13      28.7278
       665.80000  5.52139e-13      28.7168
       665.90000  5.52139e-13      28.7002
       666.00000  5.52139e-13      28.6781
       666.10000  5.52139e-13      28.6616
       666.20000  5.52139e-13      28.6395
       666.30000  5.48571e-13      28.4324
       666.40000  5.48571e-13      28.4105
       666.50000  2.78729e-12      144.215
       666.60000  2.78729e-12      144.075
       666.70000  2.78729e-12      143.936
       666.80000  2.78729e-12      143.796
       666.90000  2.78729e-12      143.657
       667.00000  2.78729e-12      143.490
       667.10000  2.78729e-12      143.657
       667.20000  2.78729e-12      143.796
       667.30000  2.78729e-12      143.936
       667.40000  2.78729e-12      144.075
       667.50000  9.51245e-12      492.174
       667.60000  9.51245e-12      492.555
       667.70000  9.51245e-12      492.935
       667.80000  9.51245e-12      493.221
       667.90000  9.51245e-12      493.506
       668.00000  9.51245e-12      493.791
       668.10000  9.51245e-12      494.077
       668.20000  9.51245e-12      494.267
       668.30000  9.51245e-12      494.457
       668.40000  9.51245e-12      494.552
       668.50000  1.32591e-12      68.9475
       668.60000  1.32591e-12      68.9607
       668.70000  1.32591e-12      68.9607
       668.80000  1.31831e-12      68.5651
       668.90000  1.31831e-12      68.5651
       669.00000  1.31831e-12      68.5519
       669.10000  1.31831e-12      68.4596
       669.20000  1.31831e-12      68.3673
       669.30000  1.31831e-12      68.2882
       669.40000  1.31831e-12      68.2091
       669.50000  1.44955e-12      74.9129
       669.60000  1.44955e-12      74.8259
       669.70000  1.44955e-12      74.7535
       669.80000  1.44955e-12      74.6810
       669.90000  1.44955e-12      74.6085
       670.00000  1.44955e-12      74.5505
       670.10000  1.44955e-12      74.4925
       670.20000  1.44955e-12      74.4346
       670.30000  1.44955e-12      74.3766
       670.40000  1.44955e-12      74.3331
       670.50000  1.31827e-12      67.5611
       670.60000  1.31827e-12      67.5216
       670.70000  1.31827e-12      67.4952
       670.80000  1.31827e-12      67.4689
       670.90000  1.31827e-12      67.4425
       671.00000  1.31827e-12      67.4293
       671.10000  1.31827e-12      67.4030
       671.20000  1.31827e-12      67.4030
       671.30000  1.31080e-12      67.0080
       671.40000  1.31080e-12      67.0080
       671.50000  1.22515e-12      62.6295
       671.60000  1.22515e-12      62.6295
       671.70000  1.22515e-12      62.6295
       671.80000  1.22515e-12      62.6418
       671.90000  1.22515e-12      62.6540
       672.00000  1.22515e-12      62.6785
       672.10000  1.22515e-12      62.7030
       672.20000  1.22515e-12      62.7275
       672.30000  1.22515e-12      62.7520
       672.40000  1.22515e-12      62.7888
       672.50000  2.98925e-12      153.289
       672.60000  2.98925e-12      153.378
       672.70000  2.98925e-12      153.468
       672.80000  2.98925e-12      153.588
       672.90000  2.98925e-12      153.707
       673.00000  2.98925e-12      153.857
       673.10000  2.98925e-12      153.797
       673.20000  2.98925e-12      153.737
       673.30000  2.98925e-12      153.677
       673.40000  2.98925e-12      153.647
       673.50000  1.44610e-12      74.3007
       673.60000  1.44610e-12      74.2863
       673.70000  1.44610e-12      74.2718
       673.80000  1.43711e-12      73.7810
       673.90000  1.43711e-12      73.7666
       674.00000  1.43711e-12      73.7523
       674.10000  1.43711e-12      73.7379
       674.20000  1.43711e-12      73.7235
       674.30000  1.43711e-12      73.7092
       674.40000  1.43711e-12      73.6948
       674.50000  1.30300e-12      66.8050
       674.60000  1.30300e-12      66.8050
       674.70000  1.30300e-12      66.7920
       674.80000  1.30300e-12      66.7920
       674.90000  1.30300e-12      66.7790
       675.00000  1.30300e-12      66.7790
       675.10000  1.30300e-12      66.7920
       675.20000  1.30300e-12      66.8050
       675.30000  1.30300e-12      66.8180
       675.40000  1.30300e-12      66.8311
       675.50000  4.67983e-13      24.0028
       675.60000  4.67983e-13      24.0075
       675.70000  4.67983e-13      24.0122
       675.80000  4.67983e-13      24.0122
       675.90000  4.67983e-13      24.0169
       676.00000  4.67983e-13      24.0169
       676.10000  4.67983e-13      24.0216
       676.20000  4.67983e-13      24.0216
       676.30000  4.64445e-13      23.8400
       676.40000  4.64445e-13      23.8400
       676.50000  1.31035e-12      67.2734
       676.60000  1.31035e-12      67.2734
       676.70000  1.31035e-12      67.2734
       676.80000  1.31035e-12      67.2603
       676.90000  1.31035e-12      67.2603
       677.00000  1.31035e-12      67.2603
       677.10000  1.31035e-12      67.2603
       677.20000  1.31035e-12      67.2472
       677.30000  1.31035e-12      67.2472
       677.40000  1.31035e-12      67.2341
       677.50000  4.36612e-12      224.026
       677.60000  4.36612e-12      223.982
       677.70000  4.36612e-12      223.982
       677.80000  4.36612e-12      223.938
       677.90000  4.36612e-12      223.895
       678.00000  4.36612e-12      223.851
       678.10000  4.36612e-12      223.807
       678.20000  4.36612e-12      223.764
       678.30000  4.36612e-12      223.720
       678.40000  4.36612e-12      223.676
       678.50000  8.23865e-13      42.1901
       678.60000  8.23865e-13      42.1819
       678.70000  8.23865e-13      42.1736
       678.80000  8.17655e-13      41.8394
       678.90000  8.17655e-13      41.8312
       679.00000  8.17655e-13      41.8149
       679.10000  8.17655e-13      41.8149
       679.20000  8.17655e-13      41.8231
       679.30000  8.17655e-13      41.8231
       679.40000  8.17655e-13      41.8231
       679.50000  3.65415e-12      186.910
       679.60000  3.65415e-12      186.910
       679.70000  3.65415e-12      186.910
       679.80000  3.65415e-12      186.910
       679.90000  3.65415e-12      186.910
       680.00000  3.65415e-12      186.873
       680.10000  3.65415e-12      186.873
       680.20000  3.65415e-12      186.873
       680.30000  3.65415e-12      186.836
       680.40000  3.65415e-12      186.836
       680.50000  5.56184e-12      284.321
       680.60000  5.56184e-12      284.321
       680.70000  5.56184e-12      284.265
       680.80000  5.56184e-12      284.210
       680.90000  5.56184e-12      284.154
       681.00000  5.56184e-12      284.154
       681.10000  5.56184e-12      284.099
       681.20000  5.56184e-12      284.043
       681.30000  5.51488e-12      281.645
       681.40000  5.51488e-12      281.590
       681.50000  1.54431e-12      78.8370
       681.60000  1.54431e-12      78.8215
       681.70000  1.54431e-12      78.8061
       681.80000  1.54431e-12      78.7752
       681.90000  1.54431e-12      78.7597
       682.00000  1.54431e-12      78.7443
       682.10000  1.54431e-12      78.7134
       682.20000  1.54431e-12      78.6825
       682.30000  1.54431e-12      78.6671
       682.40000  1.54431e-12      78.6362
       682.50000  6.66511e-13      33.9254
       682.60000  6.66511e-13      33.9121
       682.70000  6.66511e-13      33.8987
       682.80000  6.66511e-13      33.8854
       682.90000  6.66511e-13      33.8654
       683.00000  6.66511e-13      33.8521
       683.10000  6.66511e-13      33.8388
       683.20000  6.66511e-13      33.8188
       683.30000  6.66511e-13      33.7988
       683.40000  6.66511e-13      33.7788
       683.50000  2.58885e-12      131.151
       683.60000  2.58885e-12      131.074
       683.70000  2.58885e-12      130.996
       683.80000  2.56427e-12      129.649
       683.90000  2.56427e-12      129.573
       684.00000  2.56427e-12      129.496
       684.10000  2.56427e-12      129.393
       684.20000  2.56427e-12      129.316
       684.30000  2.56427e-12      129.214
       684.40000  2.56427e-12      129.137
       684.50000  5.31873e-12      267.638
       684.60000  5.31873e-12      267.426
       684.70000  5.31873e-12      267.213
       684.80000  5.31873e-12      267.000
       684.90000  5.31873e-12      266.734
       685.00000  5.31873e-12      266.521
       685.10000  5.31873e-12      266.734
       685.20000  5.31873e-12      267.000
       685.30000  5.31873e-12      267.213
       685.40000  5.31873e-12      267.372
       685.50000  6.59629e-12      331.859
       685.60000  6.59629e-12      332.123
       685.70000  6.59629e-12      332.321
       685.80000  6.59629e-12      332.519
       685.90000  6.59629e-12      332.717
       686.00000  6.59629e-12      332.915
       686.10000  6.59629e-12      333.113
       686.20000  6.59629e-12      333.245
       686.30000  6.53399e-12      330.293
       686.40000  6.53399e-12      330.424
       686.50000  1.64620e-11      832.811
       686.60000  1.64620e-11      833.141
       686.70000  1.64620e-11      833.470
       686.80000  1.64620e-11      833.635
       686.90000  1.64620e-11      833.964
       687.00000  1.64620e-11      834.128
       687.10000  1.64620e-11      834.293
       687.20000  1.64620e-11      834.293
       687.30000  1.64620e-11      834.293
       687.40000  1.64620e-11      834.293
       687.50000  3.56035e-13      18.0439
       687.60000  3.56035e-13      18.0439
       687.70000  3.56035e-13      18.0439
       687.80000  3.56035e-13      18.0439
       687.90000  3.56035e-13      18.0439
       688.00000  3.56035e-13      18.0403
       688.10000  3.56035e-13      18.0403
       688.20000  3.56035e-13      18.0403
       688.30000  3.56035e-13      18.0367
       688.40000  3.56035e-13      18.0367
       688.50000  2.42025e-13      12.2586
       688.60000  2.42025e-13      12.2562
       688.70000  2.42025e-13      12.2562
       688.80000  2.40038e-13      12.1531
       688.90000  2.40038e-13      12.1507
       689.00000  2.40038e-13      12.1483
       689.10000  2.40038e-13      12.1459
       689.20000  2.40038e-13      12.1435
       689.30000  2.40038e-13      12.1411
       689.40000  2.40038e-13      12.1387
       689.50000  1.25360e-12      63.3818
       689.60000  1.25360e-12      63.3693
       689.70000  1.25360e-12      63.3442
       689.80000  1.25360e-12      63.3317
       689.90000  1.25360e-12      63.3191
       690.00000  1.25360e-12      63.2941
       690.10000  1.25360e-12      63.2690
       690.20000  1.25360e-12      63.2565
       690.30000  1.25360e-12      63.2314
       690.40000  1.25360e-12      63.2063
       690.50000  3.83275e-12      193.209
       690.60000  3.83275e-12      193.132
       690.70000  3.83275e-12      193.056
       690.80000  3.83275e-12      192.979
       690.90000  3.83275e-12      192.902
       691.00000  3.83275e-12      192.826
       691.10000  3.83275e-12      192.902
       691.20000  3.83275e-12      192.941
       691.30000  3.80372e-12      191.555
       691.40000  3.80372e-12      191.593
       691.50000  3.75516e-12      189.185
       691.60000  3.75516e-12      189.260
       691.70000  3.75516e-12      189.297
       691.80000  3.75516e-12      189.335
       691.90000  3.75516e-12      189.372
       692.00000  3.75516e-12      189.372
       692.10000  3.75516e-12      189.410
       692.20000  3.75516e-12      189.448
       692.30000  3.75516e-12      189.448
       692.40000  3.75516e-12      189.448
       692.50000  1.96749e-13      9.92795
       692.60000  1.96749e-13      9.92795
       692.70000  1.96749e-13      9.92795
       692.80000  1.96749e-13      9.92795
       692.90000  1.96749e-13      9.92795
       693.00000  1.96749e-13      9.92598
       693.10000  1.96749e-13      9.92598
       693.20000  1.96749e-13      9.92402
       693.30000  1.96749e-13      9.92205
       693.40000  1.96749e-13      9.92008
       693.50000  4.62069e-12      232.929
       693.60000  4.62069e-12      232.883
       693.70000  4.62069e-12      232.837
       693.80000  4.58882e-12      231.185
       693.90000  4.58882e-12      231.093
       694.00000  4.58882e-12      231.047
       694.10000  4.58882e-12      231.001
       694.20000  4.58882e-12      230.910
       694.30000  4.58882e-12      230.864
       694.40000  4.58882e-12      230.772
       694.50000  6.27899e-12      315.645
       694.60000  6.27899e-12      315.582
       694.70000  6.27899e-12      315.457
       694.80000  6.27899e-12      315.331
       694.90000  6.27899e-12      315.205
       695.00000  6.27899e-12      315.080
       695.10000  6.27899e-12      314.954
       695.20000  6.27899e-12      314.829
       695.30000  6.27899e-12      314.640
       695.40000  6.27899e-12      314.515
       695.50000  1.98151e-12      99.2141
       695.60000  1.98151e-12      99.1547
       695.70000  1.98151e-12      99.1150
       695.80000  1.98151e-12      99.0556
       695.90000  1.98151e-12      98.9961
       696.00000  1.98151e-12      98.9565
       696.10000  1.98151e-12      98.8971
       696.20000  1.98151e-12      98.8376
       696.30000  1.96991e-12      98.2002
       696.40000  1.96991e-12      98.1411
       696.50000  1.23439e-12      61.4601
       696.60000  1.23439e-12      61.4231
       696.70000  1.23439e-12      61.3737
       696.80000  1.23439e-12      61.3367
       696.90000  1.23439e-12      61.2996
       697.00000  1.23439e-12      61.2503
       697.10000  1.23439e-12      61.3367
       697.20000  1.23439e-12      61.3984
       697.30000  1.23439e-12      61.4724
       697.40000  1.23439e-12      61.5342
       697.50000  8.63330e-12      430.801
       697.60000  8.63330e-12      431.147
       697.70000  8.63330e-12      431.492
       697.80000  8.63330e-12      431.751
       697.90000  8.63330e-12      432.010
       698.00000  8.63330e-12      432.183
       698.10000  8.63330e-12      432.355
       698.20000  8.63330e-12      432.528
       698.30000  8.63330e-12      432.614
       698.40000  8.63330e-12      432.701
       698.50000  3.78420e-12      189.702
       698.60000  3.78420e-12      189.702
       698.70000  3.78420e-12      189.664
       698.80000  3.76100e-12      188.464
       698.90000  3.76100e-12      188.426
       699.00000  3.76100e-12      188.351
       699.10000  3.76100e-12      188.013
       699.20000  3.76100e-12      187.636
       699.30000  3.76100e-12      187.336
       699.40000  3.76100e-12      186.997
       699.50000  1.69350e-12      84.0653
       699.60000  1.69350e-12      83.9298
       699.70000  1.69350e-12      83.8113
       699.80000  1.69350e-12      83.6927
       699.90000  1.69350e-12      83.5742
       700.00000  1.69350e-12      83.4726
       700.10000  1.69350e-12      83.3710
       700.20000  1.69350e-12      83.2693
       700.30000  1.69350e-12      83.1847
       700.40000  1.69350e-12      83.1000
       700.50000  6.82501e-12      334.562
       700.60000  6.82501e-12      334.289
       700.70000  6.82501e-12      334.016
       700.80000  6.82501e-12      333.811
       700.90000  6.82501e-12      333.606
       701.00000  6.82501e-12      333.402
       701.10000  6.82501e-12      333.333
       701.20000  6.82501e-12      333.265
       701.30000  6.77444e-12      330.728
       701.40000  6.77444e-12      330.728
       701.50000  7.16289e-12      349.692
       701.60000  7.16289e-12      349.692
       701.70000  7.16289e-12      349.692
       701.80000  7.16289e-12      349.764
       701.90000  7.16289e-12      349.764
       702.00000  7.16289e-12      349.835
       702.10000  7.16289e-12      349.979
       702.20000  7.16289e-12      350.050
       702.30000  7.16289e-12      350.193
       702.40000  7.16289e-12      350.265
       702.50000  1.29452e-12      63.3279
       702.60000  1.29452e-12      63.3667
       702.70000  1.29452e-12      63.3926
       702.80000  1.29452e-12      63.4314
