PDS_VERSION_ID         = PDS3
RECORD_TYPE            = STREAM
OBJECT                 = TEXT
  PUBLICATION_DATE     = 2014-04-25
  INTERCHANGE_FORMAT   = ASCII
  NOTE                 = "System transmission vs. wavelength."
END_OBJECT             = TEXT
END
    
The systrans directory contains the non-wavelength-integrated system 
transmission values (QE*optics*filter1*filter2) for each filter combination. 
The naming convention for these files is as follows:

<camera><filter 1><filter 2>_systrans.tab

where <camera> is "issna" or "isswa," and <filter 1> and <filter 2> represent
the filter names. For polarized filter combinations, values are given for the
parallel orientation of the filter (full transmission), with values for the 
perpendicular (blocking) orientation provided in files with subscript 
"_b_systrans.tab". 

Columns in systrans files are as follows:

 1st column: Wavelength (nm)  
 2nd column: Transmitted Flux
 3rd column: Transmitted Flux * Solar Flux (phot per cm^2-s-angstrom at 1 AU)

The solar spectrum used for this calculation is provided in solarflux.tab.

\begindata
       600.00000  3.72050e-10      19815.4
       600.10000  3.72050e-10      19785.6
       600.20000  3.72050e-10      19752.1
       600.30000  3.72050e-10      19711.2
       600.40000  3.72050e-10      19662.9
       600.50000  1.17298e-10      6183.97
       600.60000  1.17298e-10      6192.19
       600.70000  1.17298e-10      6199.22
       600.80000  1.17298e-10      6206.26
       600.90000  1.17298e-10      6210.95
       601.00000  1.17298e-10      6214.47
       601.10000  1.17298e-10      6215.65
       601.20000  1.17298e-10      6216.82
       601.30000  1.17239e-10      6213.65
       601.40000  1.17239e-10      6211.30
       601.50000  7.69787e-10      40767.9
       601.60000  7.69787e-10      40590.9
       601.70000  7.69787e-10      40444.6
       601.80000  7.69787e-10      40313.7
       601.90000  7.69787e-10      40213.7
       602.00000  7.69787e-10      40136.7
       602.10000  7.69787e-10      40075.1
       602.20000  7.69787e-10      40044.3
       602.30000  7.69787e-10      40036.6
       602.40000  7.69787e-10      40052.0
       602.50000  3.32640e-10      17320.6
       602.60000  3.32640e-10      17347.2
       602.70000  3.32640e-10      17383.8
       602.80000  3.32640e-10      17430.3
       602.90000  3.32640e-10      17486.9
       603.00000  3.32640e-10      17553.4
       603.10000  3.32640e-10      17629.9
       603.20000  3.32640e-10      17716.4
       603.30000  3.32640e-10      17812.9
       603.40000  3.32640e-10      17919.3
       603.50000  6.40575e-10      34732.0
       603.60000  6.40575e-10      34719.2
       603.70000  6.40575e-10      34706.4
       603.80000  6.40904e-10      34711.3
       603.90000  6.40904e-10      34692.1
       604.00000  6.40904e-10      34679.3
       604.10000  6.40904e-10      34660.1
       604.20000  6.40904e-10      34647.3
       604.30000  6.40904e-10      34628.0
       604.40000  6.40904e-10      34615.2
       604.50000  2.63631e-10      14230.8
       604.60000  2.63631e-10      14220.3
       604.70000  2.63631e-10      14209.7
       604.80000  2.63631e-10      14199.2
       604.90000  2.63631e-10      14188.6
       605.00000  2.63631e-10      14180.7
       605.10000  2.63631e-10      14172.8
       605.20000  2.63631e-10      14167.5
       605.30000  2.63631e-10      14159.6
       605.40000  2.63631e-10      14154.4
       605.50000  4.13302e-10      22181.9
       605.60000  4.13302e-10      22177.8
       605.70000  4.13302e-10      22169.5
       605.80000  4.13302e-10      22165.4
       605.90000  4.13302e-10      22165.4
       606.00000  4.13302e-10      22161.2
       606.10000  4.13302e-10      22161.2
       606.20000  4.13302e-10      22161.2
       606.30000  4.13752e-10      22185.4
       606.40000  4.13752e-10      22189.5
       606.50000  4.27109e-10      22910.1
       606.60000  4.27109e-10      22918.7
       606.70000  4.27109e-10      22922.9
       606.80000  4.27109e-10      22931.5
       606.90000  4.27109e-10      22931.5
       607.00000  4.27109e-10      22935.8
       607.10000  4.27109e-10      22935.8
       607.20000  4.27109e-10      22935.8
       607.30000  4.27109e-10      22931.5
       607.40000  4.27109e-10      22927.2
       607.50000  4.49314e-10      24114.7
       607.60000  4.49314e-10      24087.7
       607.70000  4.49314e-10      24065.3
       607.80000  4.49314e-10      24047.3
       607.90000  4.49314e-10      24029.3
       608.00000  4.49314e-10      24011.4
       608.10000  4.49314e-10      23997.9
       608.20000  4.49314e-10      23984.4
       608.30000  4.49314e-10      23975.4
       608.40000  4.49314e-10      23966.4
       608.50000  4.78270e-10      25506.1
       608.60000  4.78270e-10      25501.4
       608.70000  4.78270e-10      25496.6
       608.80000  4.78480e-10      25507.8
       608.90000  4.78480e-10      25512.6
       609.00000  4.78480e-10      25517.4
       609.10000  4.78480e-10      25522.1
       609.20000  4.78480e-10      25531.7
       609.30000  4.78480e-10      25541.3
       609.40000  4.78480e-10      25555.6
       609.50000  1.21326e-10      6484.87
       609.60000  1.21326e-10      6455.75
       609.70000  1.21326e-10      6430.27
       609.80000  1.21326e-10      6408.43
       609.90000  1.21326e-10      6390.23
       610.00000  1.21326e-10      6374.46
       610.10000  1.21326e-10      6361.11
       610.20000  1.21326e-10      6351.41
       610.30000  1.21326e-10      6345.34
       610.40000  1.21326e-10      6342.91
       610.50000  4.21201e-10      22016.2
       610.60000  4.21201e-10      22125.7
       610.70000  4.21201e-10      22222.5
       610.80000  4.21201e-10      22311.0
       610.90000  4.21201e-10      22386.8
       611.00000  4.21201e-10      22450.0
       611.10000  4.21201e-10      22504.8
       611.20000  4.21201e-10      22546.9
       611.30000  4.21365e-10      22589.4
       611.40000  4.21365e-10      22610.4
       611.50000  3.25708e-10      17484.0
       611.60000  3.25708e-10      17484.0
       611.70000  3.25708e-10      17474.3
       611.80000  3.25708e-10      17458.0
       611.90000  3.25708e-10      17431.9
       612.00000  3.25708e-10      17399.3
       612.10000  3.25708e-10      17357.0
       612.20000  3.25708e-10      17304.9
       612.30000  3.25708e-10      17246.3
       612.40000  3.25708e-10      17177.9
       612.50000  4.03431e-10      21184.2
       612.60000  4.03431e-10      21131.7
       612.70000  4.03431e-10      21083.3
       612.80000  4.03431e-10      21043.0
       612.90000  4.03431e-10      21010.7
       613.00000  4.03431e-10      20982.5
       613.10000  4.03431e-10      20962.3
       613.20000  4.03431e-10      20946.1
       613.30000  4.03431e-10      20938.1
       613.40000  4.03431e-10      20938.1
       613.50000  3.51776e-10      18260.7
       613.60000  3.51776e-10      18313.4
       613.70000  3.51776e-10      18359.2
       613.80000  3.51702e-10      18397.5
       613.90000  3.51702e-10      18439.7
       614.00000  3.51702e-10      18478.4
       614.10000  3.51702e-10      18510.1
       614.20000  3.51702e-10      18541.7
       614.30000  3.51702e-10      18569.8
       614.40000  3.51702e-10      18594.5
       614.50000  1.64899e-10      8728.09
       614.60000  1.64899e-10      8736.33
       614.70000  1.64899e-10      8742.93
       614.80000  1.64899e-10      8747.88
       614.90000  1.64899e-10      8751.18
       615.00000  1.64899e-10      8752.82
       615.10000  1.64899e-10      8754.47
       615.20000  1.64899e-10      8752.82
       615.30000  1.64899e-10      8751.18
       615.40000  1.64899e-10      8747.88
       615.50000  6.45603e-10      34223.4
       615.60000  6.45603e-10      33842.5
       615.70000  6.45603e-10      33493.9
       615.80000  6.45603e-10      33190.5
       615.90000  6.45603e-10      32932.2
       616.00000  6.45603e-10      32706.3
       616.10000  6.45603e-10      32525.5
       616.20000  6.45603e-10      32383.5
       616.30000  6.46611e-10      32330.6
       616.40000  6.46611e-10      32272.4
       616.50000  5.15738e-10      25719.9
       616.60000  5.15738e-10      25941.6
       616.70000  5.15738e-10      26147.9
       616.80000  5.15738e-10      26338.8
       616.90000  5.15738e-10      26519.3
       617.00000  5.15738e-10      26689.5
       617.10000  5.15738e-10      26844.2
       617.20000  5.15738e-10      26983.4
       617.30000  5.15738e-10      27112.4
       617.40000  5.15738e-10      27231.0
       617.50000  6.41797e-10      34015.2
       617.60000  6.41797e-10      34124.3
       617.70000  6.41797e-10      34220.6
       617.80000  6.41797e-10      34304.0
       617.90000  6.41797e-10      34361.8
       618.00000  6.41797e-10      34413.1
       618.10000  6.41797e-10      34445.2
       618.20000  6.41797e-10      34458.1
       618.30000  6.41797e-10      34458.1
       618.40000  6.41797e-10      34438.8
       618.50000  1.09215e-10      5855.04
       618.60000  1.09215e-10      5844.12
       618.70000  1.09215e-10      5833.20
       618.80000  1.09326e-10      5831.46
       618.90000  1.09326e-10      5823.81
       619.00000  1.09326e-10      5818.34
       619.10000  1.09326e-10      5813.97
       619.20000  1.09326e-10      5811.78
       619.30000  1.09326e-10      5810.69
       619.40000  1.09326e-10      5810.69
       619.50000  1.62557e-10      8643.14
       619.60000  1.62557e-10      8674.02
       619.70000  1.62557e-10      8701.66
       619.80000  1.62557e-10      8726.04
       619.90000  1.62557e-10      8747.17
       620.00000  1.62557e-10      8763.43
       620.10000  1.62557e-10      8776.43
       620.20000  1.62557e-10      8786.19
       620.30000  1.62557e-10      8792.69
       620.40000  1.62557e-10      8794.31
       620.50000  4.46161e-10      24137.3
       620.60000  4.46161e-10      24039.1
       620.70000  4.46161e-10      23945.5
       620.80000  4.46161e-10      23865.1
       620.90000  4.46161e-10      23793.8
       621.00000  4.46161e-10      23731.3
       621.10000  4.46161e-10      23677.8
       621.20000  4.46161e-10      23637.6
       621.30000  4.46316e-10      23610.1
       621.40000  4.46316e-10      23583.4
       621.50000  2.13283e-10      11263.5
       621.60000  2.13283e-10      11301.9
       621.70000  2.13283e-10      11336.0
       621.80000  2.13283e-10      11363.7
       621.90000  2.13283e-10      11389.3
       622.00000  2.13283e-10      11408.5
       622.10000  2.13283e-10      11423.4
       622.20000  2.13283e-10      11432.0
       622.30000  2.13283e-10      11438.4
       622.40000  2.13283e-10      11438.4
       622.50000  3.09489e-10      16591.7
       622.60000  3.09489e-10      16579.3
       622.70000  3.09489e-10      16560.8
       622.80000  3.09489e-10      16536.0
       622.90000  3.09489e-10      16502.0
       623.00000  3.09489e-10      16464.8
       623.10000  3.09489e-10      16418.4
       623.20000  3.09489e-10      16362.7
       623.30000  3.09489e-10      16303.9
       623.40000  3.09489e-10      16235.8
       623.50000  2.32051e-10      12120.0
       623.60000  2.32051e-10      12117.7
       623.70000  2.32051e-10      12117.7
       623.80000  2.31941e-10      12107.3
       623.90000  2.31941e-10      12105.0
       624.00000  2.31941e-10      12100.4
       624.10000  2.31941e-10      12093.4
       624.20000  2.31941e-10      12086.4
       624.30000  2.31941e-10      12079.5
       624.40000  2.31941e-10      12070.2
       624.50000  2.78665e-10      14490.6
       624.60000  2.78665e-10      14434.8
       624.70000  2.78665e-10      14390.3
       624.80000  2.78665e-10      14351.2
       624.90000  2.78665e-10      14320.6
       625.00000  2.78665e-10      14298.3
       625.10000  2.78665e-10      14284.4
       625.20000  2.78665e-10      14276.0
       625.30000  2.78665e-10      14278.8
       625.40000  2.78665e-10      14287.2
       625.50000  2.52258e-10      12948.4
       625.60000  2.52258e-10      12968.6
       625.70000  2.52258e-10      12998.8
       625.80000  2.52258e-10      13034.1
       625.90000  2.52258e-10      13077.0
       626.00000  2.52258e-10      13127.5
       626.10000  2.52258e-10      13185.5
       626.20000  2.52258e-10      13248.6
       626.30000  2.51967e-10      13306.4
       626.40000  2.51967e-10      13384.5
       626.50000  1.22052e-10      6523.67
       626.60000  1.22052e-10      6524.89
       626.70000  1.22052e-10      6526.11
       626.80000  1.22052e-10      6527.33
       626.90000  1.22052e-10      6528.55
       627.00000  1.22052e-10      6529.77
       627.10000  1.22052e-10      6530.99
       627.20000  1.22052e-10      6530.99
       627.30000  1.22052e-10      6532.21
       627.40000  1.22052e-10      6533.43
       627.50000  2.92958e-10      15685.0
       627.60000  2.92958e-10      15696.7
       627.70000  2.92958e-10      15705.5
       627.80000  2.92958e-10      15711.3
       627.90000  2.92958e-10      15717.2
       628.00000  2.92958e-10      15720.1
       628.10000  2.92958e-10      15723.0
       628.20000  2.92958e-10      15723.0
       628.30000  2.92958e-10      15720.1
       628.40000  2.92958e-10      15717.2
       628.50000  6.38680e-11      3425.24
       628.60000  6.38680e-11      3423.32
       628.70000  6.38680e-11      3421.41
       628.80000  6.37249e-11      3411.19
       628.90000  6.37249e-11      3408.01
       629.00000  6.37249e-11      3404.82
       629.10000  6.37249e-11      3401.00
       629.20000  6.37249e-11      3397.17
       629.30000  6.37249e-11      3392.71
       629.40000  6.37249e-11      3387.61
       629.50000  1.85998e-10      9872.80
       629.60000  1.85998e-10      9852.34
       629.70000  1.85998e-10      9831.88
       629.80000  1.85998e-10      9813.28
       629.90000  1.85998e-10      9796.54
       630.00000  1.85998e-10      9779.80
       630.10000  1.85998e-10      9763.06
       630.20000  1.85998e-10      9750.04
       630.30000  1.85998e-10      9735.16
       630.40000  1.85998e-10      9724.00
       630.50000  2.15447e-10      11250.6
       630.60000  2.15447e-10      11237.7
       630.70000  2.15447e-10      11226.9
       630.80000  2.15447e-10      11218.3
       630.90000  2.15447e-10      11209.7
       631.00000  2.15447e-10      11203.2
       631.10000  2.15447e-10      11209.7
       631.20000  2.15447e-10      11216.2
       631.30000  2.14862e-10      11194.3
       631.40000  2.14862e-10      11200.8
       631.50000  2.50168e-10      13048.8
       631.60000  2.50168e-10      13056.3
       631.70000  2.50168e-10      13063.8
       631.80000  2.50168e-10      13068.8
       631.90000  2.50168e-10      13076.3
       632.00000  2.50168e-10      13083.8
       632.10000  2.50168e-10      13091.3
       632.20000  2.50168e-10      13096.3
       632.30000  2.50168e-10      13103.8
       632.40000  2.50168e-10      13111.3
       632.50000  1.91559e-10      10043.4
       632.60000  1.91559e-10      10047.2
       632.70000  1.91559e-10      10053.0
       632.80000  1.91559e-10      10056.8
       632.90000  1.91559e-10      10060.7
       633.00000  1.91559e-10      10066.4
       633.10000  1.91559e-10      10070.2
       633.20000  1.91559e-10      10074.1
       633.30000  1.91559e-10      10077.9
       633.40000  1.91559e-10      10081.7
       633.50000  1.50791e-10      7939.13
       633.60000  1.50791e-10      7942.14
       633.70000  1.50791e-10      7945.16
       633.80000  1.50387e-10      7925.39
       633.90000  1.50387e-10      7928.40
       634.00000  1.50387e-10      7931.41
       634.10000  1.50387e-10      7932.91
       634.20000  1.50387e-10      7935.92
       634.30000  1.50387e-10      7937.43
       634.40000  1.50387e-10      7940.43
       634.50000  2.93541e-10      15501.9
       634.60000  2.93541e-10      15504.8
       634.70000  2.93541e-10      15510.7
       634.80000  2.93541e-10      15513.6
       634.90000  2.93541e-10      15516.6
       635.00000  2.93541e-10      15519.5
       635.10000  2.93541e-10      15522.5
       635.20000  2.93541e-10      15522.5
       635.30000  2.93541e-10      15525.4
       635.40000  2.93541e-10      15525.4
       635.50000  1.97319e-10      10438.2
       635.60000  1.97319e-10      10440.1
       635.70000  1.97319e-10      10440.1
       635.80000  1.97319e-10      10442.1
       635.90000  1.97319e-10      10442.1
       636.00000  1.97319e-10      10444.1
       636.10000  1.97319e-10      10444.1
       636.20000  1.97319e-10      10446.1
       636.30000  1.96607e-10      10408.4
       636.40000  1.96607e-10      10410.4
       636.50000  3.08660e-10      16343.5
       636.60000  3.08660e-10      16346.6
       636.70000  3.08660e-10      16346.6
       636.80000  3.08660e-10      16349.7
       636.90000  3.08660e-10      16349.7
       637.00000  3.08660e-10      16349.7
       637.10000  3.08660e-10      16352.8
       637.20000  3.08660e-10      16352.8
       637.30000  3.08660e-10      16355.9
       637.40000  3.08660e-10      16355.9
       637.50000  2.24799e-10      11912.1
       637.60000  2.24799e-10      11914.4
       637.70000  2.24799e-10      11914.4
       637.80000  2.24799e-10      11916.6
       637.90000  2.24799e-10      11916.6
       638.00000  2.24799e-10      11916.6
       638.10000  2.24799e-10      11918.9
       638.20000  2.24799e-10      11918.9
       638.30000  2.24799e-10      11918.9
       638.40000  2.24799e-10      11921.1
       638.50000  3.31851e-11      1759.80
       638.60000  3.31851e-11      1759.80
       638.70000  3.31851e-11      1760.14
       638.80000  3.30916e-11      1755.18
       638.90000  3.30916e-11      1755.18
       639.00000  3.30916e-11      1755.18
       639.10000  3.30916e-11      1752.53
       639.20000  3.30916e-11      1749.88
       639.30000  3.30916e-11      1747.24
       639.40000  3.30916e-11      1744.92
       639.50000  2.11855e-10      11154.2
       639.60000  2.11855e-10      11141.5
       639.70000  2.11855e-10      11126.6
       639.80000  2.11855e-10      11113.9
       639.90000  2.11855e-10      11103.3
       640.00000  2.11855e-10      11090.6
       640.10000  2.11855e-10      11080.0
       640.20000  2.11855e-10      11071.5
       640.30000  2.11855e-10      11063.1
       640.40000  2.11855e-10      11054.6
       640.50000  1.90337e-10      9924.16
       640.60000  1.90337e-10      9918.45
       640.70000  1.90337e-10      9912.74
       640.80000  1.90337e-10      9908.94
       640.90000  1.90337e-10      9903.23
       641.00000  1.90337e-10      9901.32
       641.10000  1.90337e-10      9905.13
       641.20000  1.90337e-10      9908.94
       641.30000  1.89738e-10      9881.57
       641.40000  1.89738e-10      9885.36
       641.50000  2.02774e-10      10568.6
       641.60000  2.02774e-10      10572.7
       641.70000  2.02774e-10      10576.7
       641.80000  2.02774e-10      10580.8
       641.90000  2.02774e-10      10584.8
       642.00000  2.02774e-10      10588.9
       642.10000  2.02774e-10      10590.9
       642.20000  2.02774e-10      10595.0
       642.30000  2.02774e-10      10599.0
       642.40000  2.02774e-10      10603.1
       642.50000  1.57117e-10      8218.77
       642.60000  1.57117e-10      8221.92
       642.70000  1.57117e-10      8225.06
       642.80000  1.57117e-10      8228.20
       642.90000  1.57117e-10      8231.34
       643.00000  1.57117e-10      8234.49
       643.10000  1.57117e-10      8236.06
       643.20000  1.57117e-10      8239.20
       643.30000  1.57117e-10      8242.34
       643.40000  1.57117e-10      8245.48
       643.50000  1.17347e-10      6160.69
       643.60000  1.17347e-10      6163.04
       643.70000  1.17347e-10      6164.21
       643.80000  1.16908e-10      6143.50
